SUBJECT: DK_729_POST_INJ_7-25-13
DATE: 25-Jul-2013

START TIME: 14:54:48

TIME_(s)	X_POSITION_(cm)	Y_POSITION_(cm)	ORIENTATION_(degrees)	LENGTH_(cm)
2.540	55.54	6.10	-45.24	7.32
4.236	54.99	7.51	6.80	6.62
4.380	54.00	9.02	43.57	7.41
4.524	52.37	12.75	58.74	7.61
4.652	51.65	16.59	70.77	7.84
4.796	51.54	21.82	83.78	7.39
4.924	52.91	28.76	-85.06	7.17
5.069	54.99	37.19	-87.58	7.42
5.196	55.81	44.46	73.86	7.43
5.340	54.82	49.73	61.35	7.34
5.485	55.06	52.13	47.41	7.41
5.613	54.98	54.58	34.77	7.04
5.757	55.20	56.05	41.64	7.33
5.964	54.93	57.48	19.49	6.94
6.092	54.06	59.05	-24.61	7.16
12.461	55.29	59.05	-68.29	7.84
12.668	56.15	50.79	-73.44	7.58
12.797	55.20	44.78	-69.05	7.13
12.940	54.95	41.66	-66.25	7.91
13.084	54.27	38.50	-56.47	7.29
13.276	54.44	36.81	-51.69	7.60
13.421	54.07	35.48	-48.21	7.19
13.628	53.72	32.29	-51.44	8.06
13.755	52.28	29.62	-50.10	7.86
13.900	51.49	27.75	-46.12	7.87
15.404	50.12	22.56	-61.88	6.56
15.548	47.85	15.11	-56.88	6.30
15.677	44.64	7.66	-45.11	6.20
15.820	40.64	3.01	-17.29	6.59
15.964	37.02	1.61	20.99	7.38
16.093	35.50	2.64	34.43	7.56
16.235	33.79	3.63	46.90	7.08
27.835	33.84	2.62	53.85	6.62
31.611	34.84	2.27	-89.24	5.56
31.883	35.90	2.79	-57.91	6.38
32.010	37.59	3.02	-32.99	7.60
32.155	41.08	2.93	-11.42	6.96
32.283	46.79	2.14	-24.03	6.80
32.427	49.88	2.40	-30.67	7.54
32.571	53.03	3.06	-54.64	7.21
32.699	54.85	3.93	-81.72	7.11
32.971	55.68	4.58	46.50	7.13
37.642	55.45	3.48	24.47	6.29
38.747	54.85	4.61	52.76	6.15
41.690	55.61	5.44	83.43	6.55
42.315	55.27	8.59	82.80	7.98
42.442	56.00	13.09	74.08	7.62
42.585	56.47	17.64	79.72	7.87
42.713	56.33	23.10	76.21	7.77
42.857	56.21	28.96	76.06	7.57
43.002	55.78	35.25	64.65	7.18
43.130	55.78	37.90	54.05	7.17
43.274	55.61	40.33	49.09	7.01
43.402	55.97	41.46	60.66	6.91
43.546	56.20	43.93	65.10	7.15
43.673	55.73	46.49	60.88	7.37
43.818	54.58	49.34	29.38	7.07
43.962	54.08	50.83	-14.06	7.23
44.442	54.44	49.74	-62.22	6.81
44.714	54.72	48.00	-62.13	6.85
44.841	55.01	46.71	-60.52	6.91
44.986	55.11	45.59	-39.34	7.20
45.321	54.98	43.84	-23.93	6.82
47.866	54.89	42.71	-46.30	6.94
48.010	53.98	41.16	-54.55	7.45
48.138	52.89	38.25	-59.19	7.71
48.282	51.81	34.58	-62.48	7.49
48.409	51.05	30.12	-64.03	7.30
48.553	50.64	26.65	-58.23	7.42
48.698	49.32	22.83	-47.58	7.14
48.826	48.11	21.25	-27.94	7.24
49.098	46.70	20.49	4.37	7.17
49.929	47.71	21.37	63.61	6.05
50.057	48.82	23.56	-77.37	7.35
50.201	51.03	28.50	-69.76	7.38
50.330	53.20	33.87	-79.35	7.18
50.474	54.64	38.99	68.85	6.69
50.617	54.15	42.15	31.80	6.97
50.746	52.09	44.06	-0.00	6.49
50.889	51.05	44.31	-27.37	7.02
55.417	52.09	44.32	-82.21	6.26
64.617	51.84	45.30	-16.85	5.35
66.120	48.15	47.52	28.74	7.54
66.264	43.97	52.28	30.99	7.65
66.392	42.04	55.82	30.31	7.20
66.537	40.36	58.46	8.10	6.65
66.665	39.07	59.30	-24.40	7.16
66.808	37.26	58.78	-46.19	7.45
67.080	36.12	57.88	-74.94	7.04
70.584	40.32	55.45	44.77	6.67
70.712	45.51	52.71	40.03	6.83
70.855	51.06	49.61	49.62	6.69
71.000	55.18	45.61	80.42	6.86
71.128	56.12	43.09	-59.89	7.33
71.335	55.32	40.79	-48.95	7.76
71.480	55.17	38.83	-45.37	7.61
71.608	55.29	37.34	-36.88	7.24
71.960	54.41	36.66	-7.55	6.42
78.328	54.70	38.25	46.40	6.55
78.472	54.17	42.40	69.60	7.06
78.615	54.93	47.24	78.58	7.33
78.743	55.95	52.23	61.26	7.23
78.888	56.02	54.75	62.76	7.86
79.016	55.64	56.72	51.20	7.55
79.496	54.66	57.87	15.28	7.71
79.784	54.87	58.93	-49.17	7.27
79.912	53.63	57.38	-75.06	6.71
80.056	53.13	56.00	82.20	7.02
80.456	54.68	54.64	79.39	6.52
80.600	55.06	53.50	-73.67	6.49
80.871	55.14	51.77	-31.54	7.07
81.144	54.66	50.74	-25.31	6.08
83.144	55.61	51.22	-18.27	5.90
83.624	55.19	50.30	-47.36	6.55
83.960	54.93	48.91	-28.60	6.70
84.311	53.57	47.13	-21.90	6.15
87.112	49.40	45.37	-18.41	7.70
87.255	46.81	45.13	-12.85	7.57
87.399	45.30	44.99	-1.60	7.57
87.799	41.39	41.90	-29.14	7.14
87.942	36.32	40.18	-21.37	7.53
88.071	31.36	38.63	-19.91	7.45
88.215	27.37	37.41	-21.98	7.56
88.359	23.57	37.20	-5.90	7.34
88.567	15.25	40.35	22.78	7.53
88.694	10.39	43.07	28.22	7.87
88.903	4.44	47.76	57.48	7.42
89.111	0.99	52.82	-73.36	6.86
89.319	2.82	55.74	-22.61	6.87
89.527	5.33	56.81	10.53	7.53
95.015	4.63	58.14	71.31	5.63
95.831	4.16	56.84	80.85	6.37
97.750	6.44	57.23	17.43	7.22
97.894	9.19	57.30	22.91	7.16
98.102	10.33	57.75	22.07	6.45
98.230	12.12	58.33	8.30	7.26
98.438	19.53	59.27	18.63	7.72
98.582	24.51	59.31	19.69	7.29
98.791	31.90	59.43	19.74	7.26
98.918	36.49	59.03	30.75	7.18
99.061	38.79	59.27	28.56	7.35
99.270	43.40	58.10	38.90	6.87
99.461	46.57	57.34	54.60	7.09
99.607	47.90	56.93	76.90	6.91
99.878	48.76	56.06	-70.57	6.94
100.630	47.73	55.93	-52.47	6.78
102.759	48.36	56.88	-59.85	5.68
103.718	48.12	55.24	-81.73	7.22
104.550	49.17	55.33	57.20	6.85
104.757	52.51	52.46	64.79	7.36
104.965	54.42	49.66	75.41	7.94
105.094	54.86	46.46	89.90	7.68
105.302	54.77	38.88	-85.79	7.38
105.446	54.75	34.07	-86.44	7.39
105.574	55.11	30.21	-87.32	7.26
105.718	55.78	26.50	-75.85	7.13
105.846	56.23	23.52	-71.48	7.35
105.990	55.73	20.72	-43.11	7.07
106.134	54.25	19.11	-32.06	7.45
106.326	52.66	17.78	-14.48	7.19
112.501	46.82	19.16	7.31	7.95
112.709	41.54	19.63	-0.30	7.63
112.853	36.18	19.27	-8.01	7.69
112.981	30.98	18.38	-13.18	7.25
113.126	25.61	16.54	-17.83	7.50
113.333	18.60	12.96	-23.58	7.41
113.461	14.71	10.47	-26.26	7.29
113.605	11.23	7.99	-29.19	7.44
113.749	8.12	5.84	-26.37	7.29
113.940	6.50	4.42	-14.39	7.40
114.229	5.45	5.05	30.95	7.29
114.356	4.69	5.71	54.65	7.32
114.502	4.40	7.20	83.30	7.50
114.630	4.77	9.03	-81.29	7.68
114.774	4.87	10.23	-74.93	7.61
115.525	6.13	10.77	-50.75	7.80
115.670	9.19	13.04	-28.73	7.89
115.798	13.05	14.78	-22.92	7.58
116.005	20.81	16.25	-11.00	7.12
116.148	27.32	15.62	0.54	7.11
116.357	37.08	12.53	10.26	7.04
116.486	43.52	10.13	-5.23	6.36
116.629	48.66	9.58	-20.14	6.66
116.757	52.11	9.05	-23.64	7.01
116.900	54.99	9.89	-63.73	6.29
117.109	55.95	13.08	64.47	7.30
117.317	55.19	15.19	42.49	7.36
117.524	54.54	16.99	26.58	6.48
117.653	53.88	17.77	8.83	6.59
117.797	53.02	18.29	-1.81	6.54
122.325	54.03	18.41	6.79	5.02
124.517	53.64	20.61	80.70	6.77
124.660	54.43	24.64	85.53	7.48
124.789	55.66	28.39	88.02	7.75
124.932	56.48	32.71	83.63	8.02
125.062	56.04	37.20	72.39	7.94
125.269	55.05	46.93	81.90	7.31
125.413	55.59	52.53	86.25	7.62
125.540	56.11	54.79	76.35	7.71
125.892	56.25	56.31	81.34	8.57
126.373	54.90	58.45	23.64	7.28
126.500	54.46	59.65	-16.65	7.23
126.644	53.25	59.15	-33.64	7.08
126.916	52.13	57.56	-59.80	7.14
127.268	51.40	56.23	-69.20	6.35
138.660	52.66	55.23	55.15	7.49
138.851	53.94	54.23	65.42	6.96
138.995	54.42	53.27	68.14	7.20
139.332	55.06	52.47	-61.13	6.59
139.619	54.30	50.15	-33.63	7.31
139.747	53.43	49.06	-24.07	6.65
145.508	53.25	47.82	-53.46	6.63
145.652	51.13	42.16	-65.06	6.98
145.796	49.43	36.09	-72.49	7.08
145.924	47.16	30.08	-65.47	7.08
146.068	43.63	24.25	-56.83	7.04
146.194	39.66	19.78	-45.50	7.47
146.338	35.73	15.50	-35.40	7.11
146.468	33.10	12.56	-40.72	7.72
146.675	30.01	8.49	-43.74	7.27
146.819	27.99	5.16	-45.33	7.07
146.962	26.77	3.62	-37.60	7.03
147.154	23.86	2.25	0.74	7.04
147.298	21.59	1.90	23.03	7.77
147.442	17.54	1.99	34.39	7.53
147.571	14.01	2.43	32.44	8.10
147.714	10.55	3.22	36.49	6.86
148.194	11.77	4.45	-59.44	6.34
148.467	12.79	4.90	-45.15	6.58
148.675	15.16	5.28	-26.50	7.42
148.803	17.72	6.14	-27.44	7.32
149.011	21.85	7.37	-45.83	6.99
149.155	24.50	9.13	-59.97	7.22
149.363	26.03	10.95	-77.89	6.99
149.571	26.79	13.02	-84.17	7.41
151.203	30.61	17.20	-55.07	7.21
151.347	34.67	22.80	-62.63	7.11
151.491	37.92	28.93	-73.85	6.99
151.683	40.51	38.19	80.60	7.16
151.891	38.35	46.26	61.02	7.47
152.035	36.01	50.32	46.39	7.91
152.243	30.47	56.23	21.62	7.26
152.451	26.01	57.98	-21.09	7.26
152.659	20.38	56.61	-47.80	7.29
152.787	18.77	55.97	-70.06	6.81
153.475	19.67	56.80	20.40	6.52
158.210	18.73	56.44	69.35	5.85
159.443	19.69	56.80	23.71	6.64
159.587	22.66	57.07	7.42	7.32
159.715	27.78	56.64	19.87	7.21
159.858	32.17	56.15	14.97	7.15
160.066	40.32	55.95	6.54	6.85
160.193	47.01	55.64	21.50	6.76
160.401	53.09	52.95	68.86	6.99
160.547	55.02	51.22	-78.03	6.84
160.675	55.95	50.00	-53.96	7.42
161.026	55.07	47.63	-31.88	7.66
161.154	54.14	46.53	-21.48	7.18
161.506	53.97	45.38	-33.75	7.37
164.658	54.43	40.48	-77.98	7.17
164.866	55.18	35.08	-83.52	7.37
165.073	56.16	29.43	-71.47	7.83
165.281	56.29	22.40	-73.69	7.66
165.490	56.23	15.19	-73.61	7.58
165.618	55.62	10.92	-75.32	7.29
165.762	55.47	7.79	-63.97	7.29
165.970	55.55	4.80	-31.93	6.96
166.162	54.65	3.75	-31.32	7.64
166.370	52.98	2.96	8.48	7.00
166.929	51.52	5.17	60.77	7.40
167.474	51.48	6.20	60.63	7.00
172.001	50.03	7.16	38.48	7.07
173.025	50.96	6.70	55.43	5.56
173.378	51.69	7.66	-87.10	6.36
173.921	50.57	7.24	39.97	6.41
175.713	51.78	6.74	-68.72	5.37
176.049	52.65	6.10	-15.11	5.56
176.466	54.95	5.68	62.16	6.53
176.673	55.60	4.66	-70.74	6.33
177.010	54.58	5.10	-23.89	6.78
177.154	52.64	4.69	-6.15	6.93
177.362	50.91	3.90	9.56	7.27
178.449	51.80	4.39	28.09	6.55
178.721	52.05	6.34	62.80	7.28
178.865	51.27	9.78	63.30	7.00
179.009	50.92	10.99	50.49	6.86
179.201	49.87	12.59	50.49	7.06
179.553	49.71	14.66	62.87	7.09
179.761	50.21	16.58	-88.48	7.11
179.969	53.29	23.04	-73.79	7.46
180.096	55.04	27.42	-86.69	7.20
180.304	55.48	32.72	60.69	7.50
180.513	54.65	36.57	47.31	7.40
180.721	55.06	38.47	60.87	7.13
180.993	54.72	41.14	66.64	7.01
181.201	55.39	45.96	79.91	7.57
181.411	55.28	50.19	69.53	7.86
181.537	55.33	52.14	77.95	8.05
181.745	55.59	54.11	78.57	9.03
181.953	55.40	56.64	86.53	8.05
182.577	54.27	56.23	23.64	6.92
182.705	51.09	57.35	-13.71	6.90
182.912	48.21	56.78	-51.90	7.15
183.329	48.04	55.70	-69.96	6.94
185.856	48.02	56.76	-79.97	5.58
189.424	49.16	51.67	84.74	7.57
189.567	49.87	46.91	80.76	7.57
189.711	50.23	42.79	-89.67	7.40
189.904	50.66	37.08	-78.42	7.41
190.113	50.77	29.64	-72.97	6.98
190.257	51.06	27.67	-66.42	7.28
190.528	49.60	25.02	-8.23	6.63
194.720	50.69	24.81	36.83	5.58
194.928	51.19	26.49	81.90	6.70
195.120	53.05	30.25	-54.38	7.19
195.264	54.06	31.11	-25.75	7.05
195.807	55.42	28.19	-88.36	6.93
196.016	56.02	27.39	-57.48	7.41
196.368	55.11	25.81	-21.30	6.92
196.576	53.66	25.28	2.86	6.48
201.984	52.48	25.04	-19.96	6.67
203.503	53.39	25.58	16.88	6.13
203.902	52.36	23.21	-47.11	7.36
204.110	46.94	16.42	-41.08	7.45
204.256	43.05	12.25	-35.49	7.29
204.383	39.07	8.44	-28.60	7.14
204.527	35.24	5.28	-21.61	7.31
204.734	29.96	2.99	6.47	7.40
204.879	26.79	3.32	26.50	7.45
205.071	24.85	4.51	43.90	8.17
205.216	23.66	6.10	53.79	8.58
205.359	22.22	7.34	56.14	7.73
205.904	19.92	5.84	13.90	7.39
206.111	12.25	5.08	16.45	7.73
206.239	8.16	5.62	26.80	7.51
206.382	6.12	6.03	28.44	7.81
206.591	5.20	6.90	31.17	6.36
207.759	6.08	7.96	81.06	7.13
207.966	7.09	15.62	-82.06	7.77
208.159	5.89	25.02	86.32	7.88
208.367	4.36	35.19	77.59	8.13
208.511	3.10	40.71	73.18	7.92
208.719	2.42	45.05	75.34	8.78
208.926	1.86	51.64	-89.63	8.15
209.118	1.84	56.13	-71.46	7.53
209.263	2.58	57.20	-43.67	6.81
209.599	5.55	57.77	9.67	7.47
210.015	6.86	57.11	39.49	7.59
210.367	7.41	56.24	47.70	7.64
212.831	9.54	55.79	33.01	7.88
213.038	13.77	55.03	15.01	7.77
213.247	20.37	55.32	17.12	7.49
213.455	25.04	55.25	33.97	7.20
216.542	27.74	55.54	20.92	7.09
216.749	33.45	56.96	-3.14	7.55
216.942	37.45	58.53	-13.95	7.84
217.150	40.18	58.95	-20.10	7.99
217.357	42.24	58.85	-31.96	7.64
217.631	43.57	59.56	-45.58	7.05
217.983	41.96	59.68	-85.04	6.13
218.382	40.49	59.14	65.68	5.52
218.734	41.24	58.10	65.11	5.62
219.149	38.75	58.05	-21.56	6.84
219.358	36.65	58.23	-61.17	7.59
219.549	36.07	57.19	82.77	6.40
222.846	36.14	58.25	74.22	6.17
224.557	43.15	53.96	45.04	7.01
224.702	47.72	49.62	56.17	7.18
224.910	51.42	43.62	80.36	7.59
225.118	52.90	39.22	-89.14	8.01
225.326	53.96	33.07	81.54	7.41
225.454	54.74	28.83	78.88	7.72
225.662	55.78	24.68	-85.13	7.89
225.933	56.37	22.84	-73.79	7.71
226.141	56.14	15.95	-68.41	7.51
226.350	56.13	9.96	-64.86	7.50
226.557	55.82	5.70	-64.32	7.27
226.973	54.77	4.33	-18.45	7.40
227.309	52.47	3.54	13.35	7.42
231.230	53.91	4.48	76.26	6.76
231.422	54.46	11.36	80.71	7.27
231.630	53.75	15.05	61.45	7.35
231.838	52.96	17.30	67.25	7.65
233.005	52.97	23.01	-89.80	6.53
233.278	51.73	40.57	25.68	6.23
233.484	44.28	43.28	-52.22	6.95
233.692	42.26	41.27	-75.80	8.04
236.716	43.42	41.75	73.95	7.20
236.925	45.44	41.29	54.23	6.91
239.517	42.12	40.27	-42.30	7.33
239.661	36.86	38.49	-16.54	7.37
239.869	28.13	38.57	3.00	6.92
240.012	21.68	41.44	27.63	6.88
240.205	13.27	48.53	56.81	7.17
240.413	11.37	55.31	-55.62	6.97
240.621	13.86	57.55	14.54	6.54
240.973	14.60	56.81	48.07	7.26
247.276	22.03	57.77	13.82	6.74
247.484	30.95	59.16	13.10	7.18
247.692	38.35	58.41	35.13	7.58
247.900	44.35	56.24	43.06	6.87
248.108	49.60	55.19	38.42	6.97
248.299	51.84	54.62	70.27	6.80
248.444	53.23	53.61	-64.52	6.89
252.636	53.84	50.47	-86.65	7.35
252.844	54.01	44.15	88.29	7.73
252.972	54.70	42.48	72.61	7.79
253.180	55.50	40.67	71.52	8.28
253.387	54.45	39.18	-82.72	7.83
253.596	53.39	36.32	-60.90	7.83
253.805	51.56	32.51	-42.99	7.45
253.996	50.75	30.94	-42.83	7.95
255.932	51.50	31.70	-28.40	6.38
256.332	51.56	33.95	45.34	6.04
256.540	51.61	41.05	83.26	7.42
256.684	52.15	46.66	85.60	7.21
256.892	53.34	52.32	76.07	7.77
257.099	53.28	56.15	63.17	7.32
257.292	52.09	57.82	18.89	7.20
257.580	50.63	58.66	-34.82	6.89
257.772	49.60	58.28	-62.62	7.98
258.123	49.59	56.91	-81.58	7.61
263.404	49.56	58.01	-69.03	6.35
265.595	50.63	58.28	53.37	6.79
266.010	52.17	57.88	35.20	7.06
266.427	51.10	57.99	-85.12	6.54
266.635	49.23	56.15	-51.47	7.56
266.843	46.23	51.88	-55.35	7.69
267.034	42.09	46.69	-45.85	7.62
267.323	31.55	38.58	-41.45	7.28
267.515	24.26	32.30	-43.80	7.57
267.659	19.89	28.91	-39.91	7.64
267.803	16.75	27.40	-38.72	7.89
267.995	14.44	25.96	-56.48	6.86
268.139	14.19	24.77	-85.96	7.68
268.347	12.32	19.85	-87.11	7.51
268.554	10.80	12.17	82.24	7.38
268.763	11.29	7.34	47.57	6.90
270.059	11.32	5.99	53.23	7.71
270.267	12.06	4.33	65.11	7.53
270.891	11.65	3.26	68.86	8.34
271.019	11.71	2.09	79.85	8.16
271.642	11.20	4.46	48.21	6.00
271.850	13.10	4.03	11.98	6.94
272.059	16.91	3.97	-30.12	7.16
274.458	20.60	5.52	-36.84	7.25
274.666	26.89	13.46	-63.11	7.08
274.938	38.01	24.97	-47.14	7.10
275.146	46.29	32.77	-52.02	7.38
275.338	52.50	38.14	-15.20	7.18
275.546	53.87	38.04	27.90	7.32
276.106	55.26	32.18	79.52	7.20
276.299	55.72	25.42	-74.15	7.89
276.506	55.41	20.58	-62.62	7.72
276.715	54.93	17.71	-44.28	7.09
277.066	55.68	14.67	-73.64	7.80
277.258	56.40	11.38	-76.63	8.06
277.401	56.27	8.41	-75.62	7.93
277.546	56.03	6.19	-67.45	7.86
277.755	55.32	5.05	-49.77	8.26
277.946	54.24	4.16	-49.34	7.90
278.570	56.18	5.39	-75.21	6.29
280.283	55.14	6.88	13.94	5.99
280.490	52.67	9.22	39.00	6.62
280.699	51.58	9.94	41.71	7.16
281.324	53.34	15.24	89.09	6.91
281.515	54.71	25.74	-89.72	7.31
281.660	55.37	31.28	81.18	7.23
281.803	55.18	33.67	52.07	7.38
281.996	55.31	38.34	84.40	7.58
282.140	55.57	43.97	83.73	7.24
282.412	54.95	50.45	58.12	7.91
282.620	54.18	52.65	24.75	7.58
282.828	52.54	54.13	-8.48	6.56
283.243	51.16	54.63	-58.85	6.42
289.070	51.91	55.66	75.83	5.28
289.902	53.36	55.84	18.64	6.63
290.303	52.28	55.80	-86.85	4.77
295.392	48.22	55.06	-15.47	7.66
295.600	38.20	55.38	-9.14	7.41
295.809	27.30	56.41	-10.54	7.23
296.001	18.89	56.03	-23.29	7.35
296.208	13.15	54.25	-35.59	7.67
296.417	10.11	53.11	-43.12	7.84
296.625	8.57	52.00	-50.38	7.13
298.129	7.87	53.43	-17.52	6.36
298.690	8.96	53.23	-59.10	5.38
300.338	10.19	53.05	40.57	6.44
300.531	13.19	52.25	29.38	7.84
300.739	19.83	47.42	46.75	7.43
300.883	23.42	42.42	61.55	7.42
301.091	25.95	36.61	63.70	7.87
301.299	26.69	33.87	68.30	7.81
301.507	26.57	31.50	-87.41	8.14
301.699	25.83	30.29	-81.70	8.00
302.739	26.07	31.26	87.58	6.75
304.660	26.83	32.58	23.42	6.28
304.869	32.26	34.71	-17.34	6.76
305.077	38.47	39.48	-48.35	7.11
305.268	40.33	43.11	-72.09	7.87
305.477	41.01	46.72	-85.66	7.51
305.893	42.14	47.73	-51.29	7.71
306.100	43.23	49.20	-53.00	8.12
306.373	49.32	54.67	-40.83	7.76
306.581	53.70	57.94	-49.04	7.65
306.789	55.54	59.42	-48.37	8.28
307.477	56.56	59.02	-9.40	7.10
307.878	54.76	58.72	-31.25	5.87
308.566	52.67	59.13	34.04	6.41
308.773	50.53	59.27	-36.64	7.86
315.705	50.80	50.80	-81.01	6.70
315.849	50.06	43.17	-78.71	6.77
315.993	49.97	35.92	-81.00	6.96
316.185	49.51	24.99	-69.61	6.85
316.393	47.84	17.32	-55.31	6.87
316.601	44.15	12.03	-24.84	7.16
316.809	41.23	11.10	13.87	7.77
320.859	42.38	11.12	20.35	6.56
321.884	43.74	11.43	54.85	6.02
322.091	47.47	16.43	-71.22	7.19
322.363	52.54	21.80	-45.04	7.08
322.572	51.93	20.72	-42.93	5.60
324.299	52.14	22.52	-76.60	7.45
324.492	54.05	30.08	85.88	7.51
324.700	52.73	35.42	32.93	7.29
324.909	50.21	37.24	8.64	7.30
326.621	49.16	34.09	-40.79	7.40
326.830	43.12	30.19	-22.37	7.57
327.037	37.66	29.41	-5.65	7.48
327.309	29.60	32.74	13.21	7.69
327.517	22.96	35.18	8.63	7.80
327.726	16.53	35.82	-5.62	7.56
327.934	12.31	34.50	-36.34	7.67
328.141	9.93	32.74	-49.67	7.92
328.415	8.43	31.33	-48.89	6.66
331.711	8.57	32.44	-2.40	4.95
332.400	8.89	31.47	-47.69	4.99
333.841	8.85	28.74	37.16	6.83
334.529	9.76	29.48	-13.38	7.72
337.410	9.84	27.92	32.77	7.39
338.018	10.43	26.23	59.67	8.00
338.226	11.47	22.85	78.90	8.02
338.435	11.65	20.58	84.47	7.22
338.850	10.65	20.90	-51.06	4.94
340.499	9.63	26.36	-85.22	7.45
340.706	10.90	29.17	-55.04	7.81
342.546	10.98	30.22	-70.25	8.11
342.755	11.81	33.61	-84.04	7.98
342.962	12.32	36.48	-79.27	7.90
343.107	13.11	38.42	-64.49	8.05
343.314	12.27	37.72	-65.66	6.76
343.858	11.27	37.32	74.12	5.84
344.482	12.02	36.19	-18.07	5.71
345.442	12.32	37.46	-59.97	6.94
345.634	13.15	44.89	-84.49	7.42
345.842	13.51	52.91	85.64	7.85
346.050	12.05	56.21	65.33	7.48
346.466	7.63	57.46	27.30	8.06
346.674	4.44	57.80	21.90	8.40
346.883	5.46	57.18	28.69	7.29
347.490	6.79	57.13	-78.12	5.51
347.906	11.42	57.47	0.68	7.37
348.114	17.14	58.09	4.27	7.51
348.321	23.05	59.13	13.99	7.02
348.529	30.01	59.09	28.22	7.42
348.723	33.84	56.85	61.04	7.39
351.746	40.80	56.69	23.11	6.52
351.954	48.37	53.56	40.89	7.33
352.162	51.77	50.27	69.79	7.03
352.370	53.57	46.02	80.02	7.63
352.578	55.44	40.76	76.21	8.01
353.745	55.16	39.71	-87.20	8.32
353.874	55.18	37.60	-77.73	7.61
354.082	55.47	35.55	-70.88	8.45
357.442	55.25	33.54	-86.51	7.91
357.651	54.32	25.64	-87.03	7.18
357.858	53.44	16.92	85.81	7.03
358.066	53.96	10.38	83.50	7.39
358.274	54.02	6.76	-72.41	7.29
358.466	53.35	5.13	-62.35	7.85
359.778	54.37	5.90	-43.81	5.68
360.739	53.64	7.11	12.99	6.09
360.883	52.15	8.73	39.36	7.42
361.074	50.04	11.98	55.86	6.77
361.282	50.09	14.86	73.21	7.42
364.306	50.51	15.80	62.29	6.10
364.513	51.34	16.60	-76.73	6.97
364.722	53.10	19.60	-69.96	7.40
364.930	54.76	22.01	-69.64	7.85
365.138	55.41	25.40	-86.02	7.57
365.330	55.52	30.66	78.92	8.06
365.538	55.62	38.91	87.40	7.97
365.682	56.20	43.23	83.21	7.59
365.890	55.55	48.29	64.84	8.39
366.098	55.52	52.04	60.55	7.81
366.290	54.53	54.33	53.58	7.68
366.498	54.29	56.54	60.37	7.98
367.121	55.28	55.95	52.50	6.87
367.538	51.55	56.76	-33.92	6.88
367.747	50.06	56.22	-67.60	7.02
368.290	50.75	55.02	89.76	7.71
377.202	47.71	54.07	-40.29	7.91
377.410	40.78	51.75	-32.47	7.73
377.554	37.62	50.84	-35.27	7.32
377.762	36.36	51.07	-28.40	7.12
377.970	32.06	53.09	10.65	7.35
378.162	25.74	55.18	4.31	7.43
378.369	19.37	55.63	-34.07	7.12
378.578	15.75	53.72	-68.58	7.07
382.498	15.89	54.78	51.37	6.04
382.706	19.17	55.10	10.26	7.15
382.898	27.54	55.15	15.58	7.33
383.105	32.44	54.02	34.97	7.91
383.314	34.26	52.93	56.25	7.34
383.665	33.53	54.21	74.15	5.95
390.802	34.12	53.30	62.01	7.62
391.010	35.10	51.82	57.11	8.79
391.202	37.41	47.50	67.88	8.05
391.409	40.76	42.57	64.12	7.69
391.617	44.09	36.61	79.30	7.33
391.762	45.04	33.13	87.79	7.85
391.970	45.48	27.65	-88.59	7.51
392.163	46.16	23.86	85.56	7.56
392.371	46.59	22.09	-86.72	7.87
394.226	46.06	14.29	-76.60	7.20
394.435	44.40	9.47	-56.05	8.01
394.642	42.99	7.65	-49.30	7.69
394.850	40.60	5.36	-38.41	8.31
395.057	38.20	3.77	-38.69	7.50
395.250	36.58	3.45	-17.15	8.47
396.498	29.06	2.80	-1.14	7.30
396.705	20.55	2.67	-0.71	7.32
396.898	13.88	2.82	-1.87	7.83
397.106	7.98	2.26	-5.26	7.87
397.314	5.81	2.30	-2.84	7.73
398.146	6.04	0.89	-58.48	6.74
398.626	6.95	1.41	-68.26	4.97
399.794	7.79	2.00	-52.17	4.51
400.194	7.32	2.99	44.62	5.62
400.818	8.87	5.82	-67.63	7.75
401.026	9.90	7.42	-59.17	7.16
403.426	9.14	15.68	-86.90	7.44
403.634	10.26	23.49	-77.10	7.73
403.842	12.78	27.32	-54.29	7.90
404.113	18.58	36.21	-56.66	7.54
404.386	20.89	37.42	-19.77	7.52
406.450	25.13	44.12	-54.49	7.15
406.643	29.64	51.01	-64.93	7.91
406.786	30.97	54.24	-64.60	8.13
406.995	32.94	56.99	-46.61	8.27
407.202	34.66	57.69	-38.95	7.96
407.475	33.68	56.81	-58.64	6.23
407.889	33.15	58.87	-88.71	6.90
408.498	33.19	56.84	-54.47	5.46
409.539	37.78	56.21	40.81	6.79
409.729	40.79	53.83	74.82	7.29
419.826	39.03	55.39	-12.50	6.46
420.034	32.47	56.73	-1.80	7.57
420.242	24.61	57.59	-11.21	7.52
420.450	16.69	56.92	-20.87	7.62
420.643	12.39	55.10	-54.39	7.25
421.058	11.31	55.65	64.95	6.31
421.683	11.36	57.02	36.07	5.62
424.417	11.73	56.02	46.23	7.07
427.170	11.14	56.89	50.54	6.29
438.898	17.15	55.32	20.49	7.38
439.106	27.03	52.63	16.96	6.94
439.378	42.24	49.71	13.85	7.36
439.585	49.89	48.03	15.44	7.36
439.793	53.19	48.10	22.24	7.18
439.938	54.36	47.44	63.88	6.86
440.130	55.43	46.46	-72.94	6.84
440.338	54.63	44.90	-45.07	7.63
440.897	52.83	44.81	-9.28	7.37
446.930	53.43	45.63	22.52	6.39
448.786	54.00	44.75	-32.59	6.14
449.601	54.56	45.75	33.68	5.36
450.226	54.91	46.71	-87.77	5.39
450.642	53.97	45.18	-4.16	5.94
451.250	52.43	43.02	-46.00	7.46
451.458	44.31	31.81	-47.38	6.75
451.666	38.11	21.47	-47.21	6.66
451.874	34.03	14.52	-48.99	7.24
452.082	29.68	11.97	19.70	6.53
452.290	27.90	12.13	44.03	7.08
455.107	28.82	11.41	60.38	6.35
455.378	29.94	11.27	-77.05	6.30
456.193	30.28	10.13	-68.48	5.64
461.762	33.31	10.12	-19.85	7.57
461.954	43.59	12.23	-28.05	7.06
462.161	51.52	17.36	-56.94	7.21
462.370	54.98	25.28	-86.81	7.49
462.579	54.97	32.44	78.87	7.57
462.786	54.12	38.22	74.81	7.82
462.994	54.46	44.55	89.07	7.99
463.202	54.63	49.21	81.17	7.51
463.475	53.62	53.93	30.52	7.05
463.681	50.31	55.98	-13.19	7.36
463.890	49.30	56.28	-44.92	7.04
464.290	49.57	55.27	-69.28	7.71
468.274	50.16	56.76	89.13	5.45
485.298	50.44	54.51	83.70	7.52
485.506	49.62	47.95	-82.64	7.75
485.698	48.81	45.23	-79.92	8.45
486.594	49.78	47.20	-59.22	6.46
486.801	49.90	49.47	-5.36	6.03
487.010	48.25	52.23	48.44	7.34
487.218	47.59	53.71	60.41	6.74
488.386	45.93	54.31	10.34	6.85
488.593	40.00	54.48	-36.04	7.25
488.787	37.00	53.49	-52.43	7.69
493.186	37.25	54.65	77.34	5.18
494.835	36.22	54.47	-43.13	5.84
495.042	26.92	54.10	-13.26	6.93
495.250	15.32	50.70	-35.43	7.19
495.443	9.67	46.21	-71.50	7.57
495.586	8.66	44.40	85.40	8.08
495.795	9.20	42.77	70.30	8.52
497.169	9.49	44.71	41.09	6.68
497.378	17.82	45.69	-9.85	6.61
497.570	31.83	48.77	-9.31	6.90
497.778	44.93	51.67	-1.10	6.50
497.986	53.79	52.48	43.12	6.60
498.195	55.14	50.50	-86.55	7.38
500.593	54.65	49.26	-57.49	7.77
502.034	55.23	50.24	-51.03	6.43
507.874	53.02	43.71	-66.68	7.03
508.081	48.52	31.66	-71.57	6.92
508.290	45.19	19.90	-75.74	6.73
508.481	43.21	11.68	-74.77	7.17
508.690	42.74	8.41	-71.29	7.38
508.898	43.10	5.50	-81.36	7.69
509.314	43.38	4.34	78.76	6.68
509.730	43.34	5.39	-61.47	5.11
509.922	42.46	6.19	9.37	6.25
510.129	41.31	9.36	63.75	7.35
510.418	42.94	16.76	-87.49	7.08
510.610	46.57	25.84	-82.09	7.19
510.818	47.26	36.49	70.79	7.38
511.025	45.82	44.40	61.44	7.18
511.234	45.70	51.59	48.00	6.85
511.506	39.92	54.91	-40.74	6.88
512.674	37.78	55.99	-16.53	7.25
512.882	28.06	56.11	-10.96	7.10
513.090	18.29	54.37	-49.57	6.96
513.298	16.87	51.99	79.71	7.97
515.618	16.85	53.18	49.94	6.59
515.827	23.12	53.90	7.04	6.30
516.034	36.14	56.52	2.06	6.25
516.243	47.24	56.32	36.72	6.88
516.450	51.14	54.53	-89.72	7.09
519.057	51.79	55.84	-47.89	5.51
530.595	51.88	56.88	-19.13	5.34
532.034	51.99	55.87	-63.58	6.25
534.642	52.18	50.86	-88.16	7.56
534.834	52.58	44.29	-85.67	8.05
535.042	53.07	34.27	-83.19	6.94
535.250	53.42	24.09	-70.97	6.84
535.458	51.81	18.32	-41.84	7.26
535.666	51.29	16.57	-28.02	7.01
536.562	52.46	17.06	38.74	5.45
539.090	52.69	18.39	73.80	6.11
539.299	54.90	27.66	-88.24	7.56
539.505	55.15	38.76	70.37	7.52
539.714	52.58	46.68	44.72	7.65
539.922	49.84	50.39	28.29	8.04
540.130	47.41	51.64	-8.19	7.29
540.338	44.25	51.17	-27.65	7.85
540.530	43.28	50.94	-37.00	7.50
541.778	39.78	53.54	7.91	7.82
541.970	30.29	55.68	-5.22	7.45
542.178	20.67	55.67	-6.26	7.34
542.466	11.48	55.76	-29.77	7.48
542.658	7.66	54.36	-57.81	7.36
543.346	5.53	52.56	-76.99	7.15
543.762	6.10	53.80	61.31	5.93
548.353	14.65	56.15	-4.55	6.92
548.562	25.25	57.87	-3.05	7.25
548.771	36.14	58.02	1.43	7.15
548.978	44.93	58.28	22.98	7.13
549.186	49.99	56.34	81.19	7.06
549.666	50.43	57.24	-61.73	6.76
555.218	51.64	52.66	84.16	7.83
555.490	51.63	54.73	-88.53	6.09
560.642	51.04	55.68	-17.67	5.39
561.874	52.28	50.97	84.49	7.65
562.082	52.64	41.55	83.38	7.66
562.354	53.99	29.92	87.04	7.39
562.563	54.85	20.01	-84.02	7.02
562.771	54.83	13.71	-72.13	7.49
562.979	54.02	11.29	-46.51	7.46
563.187	53.43	10.38	-26.06	7.51
565.107	53.39	12.09	33.93	6.75
565.379	50.10	21.24	54.96	7.73
565.586	48.53	23.74	42.67	8.11
567.362	50.39	25.56	84.70	7.49
567.570	52.39	38.21	80.09	7.07
567.778	50.98	47.76	63.95	7.65
567.986	50.11	51.44	76.09	6.95
568.194	51.10	51.84	-82.14	7.60
568.467	50.92	56.91	34.23	7.04
568.674	47.34	58.47	-22.50	7.26
568.881	45.75	57.33	-52.31	7.04
572.386	45.78	58.66	-61.03	6.24
578.482	47.64	57.73	47.04	7.49
578.689	50.66	56.02	41.50	7.49
578.897	52.39	55.63	21.96	6.85
580.210	51.39	55.77	82.91	5.39
580.690	50.57	54.64	-46.04	7.32
580.883	48.41	54.12	-12.48	7.32
581.090	47.20	54.81	0.10	7.64
581.362	41.71	56.30	0.45	7.82
581.570	38.66	56.23	-21.48	7.31
583.426	33.08	56.91	-8.41	7.83
583.633	24.01	56.35	-11.62	7.50
583.842	16.53	55.38	-29.77	7.43
584.113	12.32	53.48	-86.41	7.09
584.594	14.10	53.96	29.62	7.50
584.802	16.65	53.28	30.68	7.18
585.218	15.69	53.96	75.49	5.51
592.562	27.25	55.69	2.09	6.30
592.835	43.15	52.72	46.12	6.76
593.042	46.24	48.19	-71.69	7.17
595.842	46.72	47.12	-69.38	7.29
596.050	47.74	36.78	81.93	7.28
596.258	50.67	24.68	86.01	6.68
596.530	49.96	15.37	-26.95	7.33
596.739	49.41	14.34	9.27	6.46
598.866	50.44	16.02	65.92	6.37
599.073	53.59	27.04	-81.89	7.15
599.282	55.29	40.66	73.79	6.99
599.489	52.62	49.90	52.79	7.35
599.699	49.52	53.97	13.13	7.15
599.890	48.03	54.87	-17.02	7.12
600.098	45.31	54.42	-43.61	7.18
604.771	45.95	55.24	-70.07	5.90
606.962	45.22	56.01	-13.60	6.74
608.882	46.21	55.70	-71.33	5.61
609.090	47.17	55.10	61.80	6.41
609.297	49.99	52.94	42.41	7.00
609.507	53.22	52.36	32.74	7.89
609.714	55.90	51.00	87.94	6.84
610.130	55.55	49.89	-65.14	8.13
612.593	55.52	50.91	-38.18	6.54
612.801	54.92	52.06	0.73	6.52
613.010	51.58	55.45	40.90	6.95
613.218	51.53	56.51	41.52	7.01
613.410	50.43	57.71	22.59	6.77
613.617	48.87	58.31	-13.17	7.64
613.826	45.88	58.25	-31.79	6.89
614.451	47.10	58.66	87.58	6.30
621.105	45.57	55.49	-70.33	8.02
621.378	40.89	45.37	-60.87	7.59
621.585	35.89	37.91	-50.78	7.59
621.794	31.32	32.47	-45.09	7.89
622.003	26.38	28.97	-32.59	7.91
622.194	20.73	26.92	-28.23	7.96
622.402	17.48	25.27	-33.18	7.69
623.025	16.84	20.55	-74.13	7.27
623.234	14.31	13.02	-70.38	7.75
623.442	12.39	8.97	-58.69	8.07
623.650	9.62	5.99	-46.13	7.80
624.882	10.30	5.14	-87.81	6.13
626.451	10.02	6.15	-56.50	5.37
627.074	10.92	7.15	-8.20	6.02
627.346	10.45	10.30	87.02	7.06
627.554	11.93	12.40	-52.31	7.79
627.763	16.57	14.32	-25.94	7.52
627.970	25.48	15.65	-19.58	7.29
628.177	35.78	20.12	-39.00	7.06
628.450	47.13	30.18	-54.63	7.46
628.658	52.16	38.74	-78.11	7.31
628.851	52.42	50.58	73.18	7.49
629.059	50.32	56.58	23.02	7.23
629.346	47.87	57.91	-31.53	7.02
629.538	45.72	57.12	-56.54	7.01
635.587	45.91	58.20	-65.11	5.31
639.762	40.80	57.81	-7.16	7.97
639.970	34.01	58.06	-15.23	7.88
640.177	27.31	57.42	-20.03	7.99
640.387	21.67	57.14	-19.92	7.82
640.593	16.61	57.25	-6.53	7.80
640.802	12.30	57.51	-19.01	7.43
641.010	8.31	55.23	-66.55	7.24
641.217	6.86	54.28	-89.45	7.36
644.578	7.58	55.70	39.26	6.18
644.786	14.67	56.34	5.23	6.91
644.978	23.81	57.23	4.82	6.99
645.187	32.95	57.68	12.69	7.17
645.395	41.84	56.45	17.64	7.27
645.602	48.80	55.50	27.84	7.34
645.810	52.98	53.59	73.85	6.97
650.754	49.15	56.69	21.05	7.44
650.962	47.36	58.26	18.25	6.95
651.154	46.54	58.88	16.51	7.13
651.842	46.82	60.08	72.21	4.66
652.530	47.95	60.62	-65.81	5.36
654.386	47.84	58.74	-20.11	5.88
655.490	46.30	56.40	-54.24	7.15
663.314	46.64	57.38	-78.07	6.18
664.129	50.60	52.03	68.85	7.11
664.482	53.48	42.86	-83.86	8.10
664.754	52.60	38.24	-71.46	8.19
664.962	52.61	35.75	-73.49	8.17
665.154	51.85	29.96	-84.42	7.85
665.442	51.10	23.41	-67.96	7.73
665.634	50.53	18.11	-70.27	7.53
665.841	50.26	10.94	-77.08	7.32
666.050	48.58	5.78	-48.21	7.52
666.259	48.23	4.41	-30.63	7.46
668.802	49.04	5.17	-14.33	5.76
669.683	49.95	9.58	83.45	7.26
669.890	50.90	18.80	-88.63	7.19
670.098	53.19	29.57	-87.04	7.23
670.370	53.90	43.50	72.04	7.50
670.578	52.73	49.27	62.95	7.03
670.787	51.48	50.84	21.12	7.28
670.993	48.19	52.50	-16.27	7.25
671.202	47.16	52.52	-29.54	7.62
673.330	48.22	53.11	-39.47	6.43
673.538	49.43	53.13	-52.00	6.32
673.746	50.44	53.06	-89.46	6.25
674.835	49.62	54.13	-23.72	5.97
678.466	50.29	41.56	-83.65	7.66
678.673	48.48	32.51	-65.58	7.45
678.882	46.88	26.52	-62.57	8.01
679.090	46.16	25.81	-48.20	7.87
679.569	44.58	22.71	-58.16	7.15
679.778	38.76	15.11	-34.71	7.37
679.985	31.07	12.66	14.63	7.68
680.193	26.64	13.76	25.77	8.01
680.465	24.11	16.54	45.52	8.02
680.738	20.18	19.85	28.19	8.06
680.946	13.32	23.14	24.98	7.99
681.154	6.31	26.84	39.70	7.98
681.363	2.32	31.95	79.96	7.80
681.553	2.51	37.54	-71.79	7.95
681.762	3.36	42.49	-73.51	8.00
681.969	3.10	51.91	88.04	7.87
682.177	1.91	56.12	-88.02	7.08
682.657	4.30	57.16	-15.57	6.71
683.073	5.82	57.21	33.08	7.13
687.458	4.88	57.99	69.25	6.08
690.419	9.51	56.51	26.99	8.02
690.626	10.62	56.11	36.31	7.87
692.465	9.59	56.97	63.95	5.66
692.882	8.32	57.32	-64.65	4.44
693.570	7.30	57.34	-22.68	4.45
694.802	8.40	57.23	71.78	5.44
695.698	9.75	57.73	11.23	7.00
698.514	18.86	56.86	2.01	7.45
698.723	28.59	57.14	-0.59	7.14
698.930	39.70	57.79	-1.40	6.83
699.138	49.33	58.67	13.87	7.22
699.411	53.37	58.13	36.68	8.14
700.370	52.81	59.03	29.89	7.64
700.978	53.97	58.24	81.14	7.29
701.186	53.90	56.81	-64.91	6.60
704.754	52.63	56.53	-26.86	6.63
708.738	52.34	53.87	-70.58	7.95
708.947	50.16	48.17	-62.10	7.73
709.153	49.18	47.07	-50.85	8.16
710.930	49.88	48.27	-33.29	6.44
711.138	48.04	50.94	27.49	7.25
711.410	44.71	54.75	51.81	6.99
711.618	45.23	55.70	74.70	5.86
712.242	49.28	58.10	-29.93	6.85
712.514	53.30	57.96	42.26	7.40
713.410	53.70	55.79	-52.56	6.54
713.953	53.85	56.94	-26.87	5.66
717.730	53.94	55.90	-73.39	6.55
718.419	54.45	54.35	73.87	7.86
718.626	54.77	52.95	53.29	8.03
718.819	55.40	51.10	39.10	6.76
719.235	56.23	51.95	-7.26	7.16
719.505	55.21	52.64	-23.90	6.36
719.714	53.93	52.04	-3.71	5.54
720.129	54.85	53.64	-74.81	6.90
720.338	54.64	56.15	60.82	7.53
720.753	53.23	57.07	7.90	7.10
720.945	51.76	58.20	-9.55	6.75
721.153	50.06	57.74	-34.44	6.76
721.362	48.93	57.43	-43.16	6.95
723.426	49.72	58.21	-48.60	6.34
730.018	48.45	58.47	-16.89	7.49
730.210	46.20	57.68	-18.26	8.03
730.499	36.66	57.92	4.37	7.70
730.690	29.61	58.15	-12.26	7.87
730.899	23.45	56.73	-29.23	7.72
731.522	21.96	55.59	-48.61	7.30
733.506	25.87	54.03	53.17	6.89
733.714	34.75	49.10	28.42	7.41
733.922	40.93	44.78	51.69	7.79
734.129	43.01	42.84	52.91	8.19
734.610	49.75	38.44	67.33	6.50
734.818	50.93	32.83	-61.93	7.02
735.026	50.81	30.71	-54.67	8.18
738.322	51.14	25.86	-74.92	6.81
738.514	50.17	19.09	-69.73	7.33
738.722	48.62	14.52	-44.48	7.28
738.930	46.91	13.34	-2.07	7.77
739.139	44.35	13.60	10.96	7.87
740.514	45.43	13.92	46.04	6.62
740.722	47.66	21.89	-88.48	6.75
740.930	49.51	35.25	84.74	7.10
741.122	47.88	45.31	64.45	7.69
741.410	46.68	50.57	70.84	7.62
742.642	42.14	53.17	1.28	7.46
742.850	38.74	54.21	-7.78	7.29
743.058	37.52	54.41	4.19	6.64
743.537	38.20	55.17	32.65	5.09
744.834	37.55	53.41	-65.27	6.90
745.041	38.51	52.97	56.21	6.80
745.250	46.49	51.25	33.39	6.68
745.521	53.41	42.21	-88.70	6.89
745.730	53.61	36.81	-75.10	8.03
745.938	53.12	31.85	-88.90	7.49
746.147	53.02	28.78	-80.94	7.40
747.986	53.60	29.70	-66.81	5.36
748.466	52.78	30.74	-0.62	5.83
748.674	50.54	34.71	41.23	7.39
748.882	45.52	38.92	13.46	7.62
749.091	40.08	39.36	-20.41	7.64
749.298	38.42	39.26	-30.25	7.81
749.714	33.06	35.81	-40.04	7.35
749.906	24.29	29.56	-39.98	7.21
750.113	17.57	24.93	-32.40	7.25
750.386	14.47	23.21	-43.99	8.14
751.698	11.45	14.35	-76.37	7.66
751.842	10.28	10.02	-76.36	7.65
752.034	9.34	7.36	-75.16	7.74
753.826	11.77	6.62	15.11	7.42
754.034	14.95	6.24	-27.10	7.58
757.938	15.28	14.68	-83.06	7.29
758.146	16.79	25.94	-81.84	7.32
758.354	18.73	38.56	-72.16	7.63
758.562	23.13	48.60	-50.49	7.41
758.770	31.93	55.36	-8.83	7.17
758.978	43.34	55.23	30.28	6.66
759.170	50.33	50.94	80.61	6.86
762.818	51.31	51.22	-66.22	5.77
763.234	46.49	54.03	16.82	7.26
763.506	36.64	57.15	-9.25	7.57
763.715	32.34	56.92	-25.93	7.70
763.986	23.40	58.03	-5.41	7.43
764.195	14.63	56.94	-22.08	7.80
764.467	9.72	54.88	-69.73	7.15
764.946	10.21	56.22	72.76	5.81
767.409	11.01	56.84	41.40	6.06
771.938	12.76	57.21	7.36	7.46
772.146	21.78	58.25	-4.72	7.34
772.499	38.40	57.10	7.88	7.16
772.691	48.35	55.06	38.85	7.18
772.898	51.77	51.38	-89.15	7.59
773.105	52.02	50.18	-74.09	8.19
773.379	51.39	49.35	-59.53	7.96
776.466	49.50	48.87	-26.11	7.64
776.738	48.41	48.79	-24.98	7.36
777.842	49.17	49.97	25.04	6.76
778.050	45.83	51.90	12.09	7.15
778.258	44.50	52.35	-20.51	6.63
778.530	44.21	50.53	-59.43	7.91
778.738	41.13	44.96	-63.41	8.05
779.009	40.35	43.94	-61.78	8.49
780.114	41.32	41.19	-88.62	7.83
780.386	42.11	33.05	83.94	7.97
780.593	42.59	31.45	-87.19	7.93
780.802	43.52	30.34	74.27	7.90
780.994	47.02	20.91	70.81	7.43
781.202	48.98	13.93	79.43	7.28
781.409	50.86	9.54	70.72	7.19
781.618	52.99	5.66	62.43	7.66
782.098	53.81	4.92	70.57	6.62
782.786	52.76	5.44	-25.05	5.76
782.994	51.56	6.49	27.52	6.86
784.371	52.31	9.64	78.52	7.19
784.563	53.15	21.88	-88.41	6.73
784.770	53.33	34.82	82.51	7.12
784.978	51.60	44.37	61.48	7.19
785.186	50.64	48.46	55.44	7.63
785.459	50.95	49.69	64.81	6.67
786.770	49.29	48.81	-2.30	6.95
788.610	41.94	53.07	5.76	7.45
788.818	33.02	54.05	-5.40	7.41
789.027	24.72	53.64	-20.85	7.62
789.299	22.20	53.32	-41.79	7.13
791.154	25.11	51.78	59.18	7.12
791.426	36.87	41.62	46.88	7.17
791.634	42.82	34.15	68.48	7.34
791.985	43.31	29.82	-72.89	8.18
793.634	42.43	29.32	-54.30	7.56
793.826	41.51	27.57	-49.67	6.50
795.139	42.64	28.03	-64.10	5.22
795.618	42.39	29.16	-0.93	6.13
796.994	42.34	37.71	79.57	6.79
797.202	42.34	47.41	85.17	7.42
797.538	47.86	53.62	-39.87	7.64
797.810	52.53	57.34	-3.36	7.28
798.018	54.07	56.25	48.72	7.12
799.458	53.33	57.19	82.61	6.04
804.066	53.48	58.19	10.85	4.93
804.546	52.60	57.41	-69.30	5.65
805.297	53.97	57.29	-15.09	6.39
805.571	55.35	57.46	-74.99	7.06
806.178	53.19	57.81	4.23	7.02
806.466	51.57	57.99	-21.98	7.31
810.305	51.09	55.18	-76.06	7.28
810.721	51.68	56.20	80.80	5.13
812.354	46.85	56.11	-9.54	7.98
812.642	36.23	56.10	-3.14	7.27
812.850	27.84	56.51	-11.30	7.80
813.042	22.05	55.89	-20.17	7.79
813.330	16.19	53.77	-53.12	7.82
813.524	14.45	51.79	-80.56	7.87
815.522	18.62	52.79	16.09	7.13
815.730	33.10	52.30	10.22	6.34
815.938	43.93	49.80	42.86	7.23
816.130	48.33	43.49	76.65	7.74
816.419	48.29	39.71	-70.99	7.74
817.858	49.76	34.91	-88.53	6.89
818.050	50.20	25.29	-77.19	6.67
818.338	49.02	21.09	-39.02	7.28
821.010	42.86	13.70	-47.68	7.29
821.283	37.05	7.71	-40.44	7.85
821.490	33.38	4.52	-38.11	7.49
821.698	29.56	3.55	-9.11	7.87
821.905	21.96	2.66	-1.56	7.12
822.114	14.37	2.46	7.46	7.49
822.386	7.65	3.46	27.85	7.76
822.594	5.54	4.36	42.77	7.84
822.786	5.85	5.81	68.30	8.02
822.993	5.72	8.71	88.80	8.21
823.474	5.53	7.60	-84.11	6.27
823.890	7.89	8.00	-31.15	7.56
824.098	9.51	9.23	-25.29	7.60
825.954	19.38	5.83	-3.05	7.41
826.161	26.34	6.36	-22.75	7.48
826.433	35.90	10.30	-44.02	7.08
826.642	41.08	16.55	-66.95	7.31
826.834	47.48	28.40	-66.22	6.87
827.042	52.21	41.35	-78.87	6.89
827.250	53.99	47.93	-62.48	7.42
827.522	53.14	51.40	54.23	6.84
827.729	50.25	53.94	0.55	7.26
827.938	49.11	54.07	-22.52	7.40
830.481	46.05	52.90	-35.65	8.29
830.690	42.16	50.78	-32.76	8.42
831.378	43.08	51.27	-75.98	6.32
833.506	42.42	52.03	-24.53	5.30
834.467	43.41	51.38	88.63	6.06
834.946	49.47	47.51	48.42	6.94
835.218	53.61	41.92	73.48	8.20
835.491	54.65	39.02	82.00	7.89
835.697	55.11	33.67	-84.95	7.69
835.907	55.19	31.72	-72.27	8.67
837.825	53.96	33.64	-3.43	6.38
838.034	50.26	38.98	45.55	7.40
838.307	46.70	43.92	32.32	7.10
838.915	38.61	49.48	23.41	7.52
839.122	30.43	53.17	6.49	7.65
839.395	23.49	54.49	-13.32	7.48
839.602	19.85	55.46	-8.80	7.91
839.810	11.84	55.70	-14.32	7.55
840.018	8.44	54.81	-46.40	7.71
840.226	7.81	53.96	-73.02	7.47
840.499	7.19	50.99	86.49	8.26
840.707	7.00	49.52	73.88	7.83
841.811	7.44	47.83	76.44	8.34
842.002	8.32	45.17	76.44	8.39
842.291	9.21	38.90	72.62	8.40
842.563	9.48	34.08	-89.19	8.57
842.770	8.51	31.26	-62.25	7.23
844.002	9.50	31.99	79.56	6.67
844.690	10.54	32.54	12.01	6.41
844.897	17.07	38.03	-37.94	6.86
845.091	27.22	47.17	-30.03	7.07
845.379	41.42	50.37	26.12	7.31
845.649	48.30	44.48	74.19	8.03
846.611	48.20	42.84	-86.14	7.75
846.818	47.68	40.58	-57.34	7.88
848.466	47.61	42.55	-6.43	6.26
848.738	41.41	50.95	37.73	7.33
848.947	38.67	54.55	34.79	7.50
849.138	37.66	55.02	11.10	6.83
850.721	38.39	55.80	33.23	5.95
852.035	38.68	54.70	-30.01	5.94
852.707	38.13	53.08	-73.91	7.07
852.915	38.06	50.38	71.38	7.74
854.227	38.92	51.04	41.27	6.76
854.498	51.73	49.25	30.55	6.40
854.770	55.20	43.39	-80.98	7.55
854.979	54.03	38.37	-71.60	7.77
855.185	52.95	35.94	-58.37	8.04
856.562	53.63	37.48	-11.98	5.82
856.771	48.79	44.06	32.97	7.11
857.043	40.81	50.21	19.58	7.73
857.250	33.20	51.62	-5.16	7.77
857.522	22.05	51.13	-10.32	7.70
857.731	16.26	50.40	-30.05	7.49
859.234	18.61	48.13	68.76	7.58
859.571	21.56	42.95	58.71	8.49
860.194	26.59	42.37	19.09	6.55
860.529	44.84	42.07	20.30	6.66
860.737	51.01	37.59	51.38	7.29
860.946	53.00	34.34	60.45	7.63
862.114	53.13	29.68	88.73	6.75
862.386	52.96	15.95	-86.45	6.98
862.658	51.76	9.06	-56.53	7.47
862.867	50.58	6.29	-58.42	7.56
863.427	48.47	4.89	-49.64	6.47
863.826	49.73	4.40	87.64	7.01
866.786	50.77	5.83	-39.72	4.95
867.058	50.20	7.12	29.16	6.31
867.745	50.97	9.23	81.09	7.05
867.954	52.61	20.76	88.89	7.05
868.161	54.60	35.29	-87.81	6.77
868.434	53.95	46.44	64.27	7.43
868.642	53.35	48.10	46.81	7.46
869.457	50.37	50.08	19.73	7.27
869.666	49.72	51.39	26.22	7.14
872.002	48.66	51.39	-13.84	6.88
872.210	46.18	51.44	-12.51	7.49
872.545	45.13	51.71	-28.12	5.58
873.026	48.14	49.42	57.38	7.37
873.234	52.96	45.11	60.06	7.62
873.507	53.59	40.31	-82.83	7.55
873.714	52.78	37.53	-69.27	8.40
873.922	52.27	35.44	-67.31	7.83
874.195	51.58	33.93	-70.44	7.93
875.427	49.22	32.76	-32.40	7.45
875.635	43.33	31.93	2.23	7.76
875.842	37.45	34.36	16.69	7.47
876.050	29.95	40.19	26.87	7.48
876.322	17.19	47.91	25.37	7.48
876.530	9.74	53.21	40.32	7.95
876.738	4.28	56.78	29.42	7.68
877.490	2.87	56.03	-55.59	6.92
877.699	2.40	54.72	57.58	7.66
880.371	3.33	55.75	18.00	7.25
880.578	16.72	56.59	1.29	6.82
880.786	32.75	56.97	13.29	6.23
880.994	44.02	53.93	57.47	6.97
881.267	46.07	51.76	-85.41	8.28
882.835	45.72	52.88	-56.29	6.57
883.043	39.40	52.64	-21.93	7.37
883.314	38.04	51.38	-51.06	7.83
884.001	38.36	49.06	-71.39	7.48
884.210	34.55	37.88	-61.77	7.10
884.482	27.69	27.70	-44.59	7.44
884.690	20.66	20.44	-42.31	7.43
884.899	15.05	15.92	-34.22	7.61
885.106	11.90	14.88	-6.31	7.72
886.211	13.55	15.49	50.28	5.86
886.482	14.92	21.49	-78.42	7.34
886.690	20.85	30.57	-52.49	7.37
886.883	29.10	40.85	-53.83	7.47
887.090	37.82	51.69	-50.33	7.00
887.362	48.88	57.59	-6.11	7.21
887.650	52.62	58.24	24.63	7.44
887.842	53.15	56.79	47.05	7.39
888.338	54.05	53.87	-61.62	7.31
891.490	49.81	54.92	-0.33	7.30
891.762	46.98	55.71	-4.10	7.72
891.971	43.81	55.92	-4.64	7.28
892.721	42.24	56.55	6.54	7.87
892.931	38.15	56.98	-1.03	7.60
893.138	31.17	56.49	-12.70	7.38
893.474	26.75	57.44	24.40	7.18
893.890	25.41	58.73	52.80	6.63
894.098	25.93	59.65	-89.31	5.93
894.578	27.09	59.96	-60.42	5.95
894.994	26.84	57.49	-59.68	5.66
895.475	32.83	57.59	36.21	7.28
895.747	34.14	56.92	44.68	7.33
897.459	48.45	52.89	40.30	6.87
897.666	52.45	49.84	65.20	7.94
898.082	53.02	48.21	71.40	7.64
898.355	53.74	41.99	89.66	8.16
898.626	53.68	37.92	-79.84	8.00
898.834	53.13	32.34	-75.55	7.67
899.042	52.15	22.75	-83.48	6.88
899.377	49.90	13.34	-54.44	8.04
900.483	47.87	12.99	14.32	7.01
900.690	46.02	15.45	48.31	7.34
901.778	48.78	24.04	89.01	6.71
901.986	48.47	37.60	84.30	7.46
902.195	48.18	46.77	-88.89	7.51
902.466	50.21	50.71	-71.43	7.74
902.738	53.22	56.33	-67.73	8.20
902.947	54.86	57.85	-66.29	7.25
903.907	54.50	56.81	75.23	5.40
904.114	53.17	57.29	18.50	7.08
904.386	48.08	56.79	-38.38	7.77
904.594	46.08	55.73	-46.54	7.25
907.139	46.76	56.52	-49.22	6.19
907.346	44.15	56.52	-14.45	7.70
907.618	31.02	54.60	-19.97	7.39
907.826	27.54	53.59	-39.54	7.69
908.098	26.78	52.93	-62.42	7.76
910.706	28.79	53.03	58.97	6.91
910.978	41.15	48.21	32.93	6.92
911.186	47.16	41.76	65.27	7.12
911.523	48.68	32.69	-75.87	7.83
911.731	48.02	31.13	-71.28	8.01
912.481	48.69	19.26	-79.73	6.84
912.691	45.96	12.14	-42.86	7.32
912.898	42.80	9.41	-28.24	7.73
913.105	39.32	8.01	-17.77	7.67
913.794	32.71	8.00	1.48	7.50
914.003	25.82	7.47	4.69	7.68
914.275	23.34	7.74	22.75	7.36
914.546	24.34	9.91	66.81	7.84
914.754	22.14	18.53	66.29	7.63
915.025	19.87	23.15	50.73	8.10
915.234	16.31	25.60	27.89	7.82
915.570	9.93	30.87	40.41	8.06
915.778	4.95	37.19	47.56	7.84
915.986	3.05	40.33	42.10	6.89
916.674	1.86	40.19	5.21	6.89
917.090	3.05	40.05	7.89	4.85
918.050	4.08	40.21	66.51	6.26
918.594	10.70	47.59	-41.33	7.13
918.802	20.45	54.15	-20.66	7.22
919.011	32.14	56.00	2.46	6.92
919.218	43.89	55.13	23.99	6.54
919.490	50.57	49.43	78.82	7.37
920.722	49.76	45.57	-74.80	7.14
920.930	47.64	34.50	-80.64	7.33
921.139	47.83	25.06	-88.18	6.89
921.474	49.79	10.90	-82.72	7.54
921.890	50.87	6.94	83.58	7.65
922.099	50.71	5.82	-74.56	7.04
925.458	44.29	5.12	-0.95	7.31
925.730	39.71	4.74	-0.53	7.77
927.378	40.57	6.81	68.29	6.52
927.649	45.43	20.45	-83.09	6.79
927.858	49.15	33.72	86.97	7.31
928.065	48.25	43.74	66.35	7.53
928.338	45.17	49.81	31.57	7.60
928.546	43.28	51.17	-0.49	7.09
928.754	41.63	51.26	-16.51	7.40
928.962	39.05	51.44	-35.81	6.78
929.922	40.01	52.01	-48.97	6.07
930.466	38.87	52.35	-11.83	6.78
930.674	29.15	52.70	-4.74	7.38
930.947	20.99	52.59	-11.35	7.86
931.154	19.15	52.85	-15.57	7.08
931.698	18.35	50.37	-65.31	7.06
931.906	16.63	47.06	83.16	7.77
933.554	24.16	47.56	2.48	7.17
933.762	33.69	45.52	21.07	7.32
933.970	43.14	39.32	52.62	7.40
934.242	48.47	29.91	74.50	7.18
934.514	49.75	25.79	59.37	7.67
934.722	52.56	23.75	44.76	7.66
935.475	53.03	19.25	-59.43	7.16
935.681	50.71	17.14	-22.08	7.45
937.058	51.40	19.95	58.06	6.94
937.459	47.57	43.81	55.12	7.11
937.667	44.15	46.61	18.03	7.65
937.874	37.57	50.36	19.13	7.53
938.082	35.09	52.14	17.60	7.34
938.435	29.67	50.60	-20.59	7.06
938.626	19.88	51.11	-8.61	7.30
938.914	11.99	50.85	-26.33	7.51
939.185	8.83	48.23	-71.23	7.68
940.690	10.45	49.42	48.12	6.70
940.898	19.91	44.46	36.73	7.34
941.106	24.90	37.04	73.23	7.50
941.442	20.44	21.90	-62.78	7.40
941.650	16.44	17.56	-42.26	7.37
941.859	13.47	15.95	-37.75	7.46
944.739	14.02	10.11	78.36	7.04
944.946	14.16	6.73	55.48	7.24
945.155	17.60	4.87	20.91	7.11
945.426	18.92	4.44	-5.22	7.45
946.738	23.78	10.58	-44.50	6.85
946.930	31.55	15.75	-37.34	7.29
947.139	40.31	21.19	-47.14	6.85
947.490	51.64	43.19	-80.35	7.38
947.698	51.61	49.81	49.28	7.49
947.970	50.06	51.97	26.33	7.61
949.474	46.90	53.19	-6.99	7.22
950.162	47.11	49.61	-78.21	7.37
950.498	47.25	48.35	-63.14	6.60
950.914	46.95	49.34	-34.81	5.81
951.394	47.77	48.47	85.50	6.43
951.810	51.41	46.33	45.04	6.94
952.355	55.56	45.34	-83.50	7.51
952.563	54.65	42.43	-60.93	7.64
952.770	53.80	40.47	-50.31	8.18
954.898	53.59	43.03	14.72	6.56
955.107	48.41	50.36	40.35	7.53
955.442	46.32	55.01	72.68	6.94
955.650	46.62	56.77	-85.13	6.99
955.857	47.68	57.56	-73.23	7.13
956.066	47.82	58.98	-69.47	7.55
956.548	47.04	56.45	89.68	5.31
956.818	45.52	57.34	26.11	6.89
957.090	41.01	57.90	-38.68	7.68
957.363	39.06	56.45	-59.50	7.57
958.882	41.37	47.13	77.23	7.32
959.090	41.60	41.03	-75.29	7.53
959.427	39.65	36.32	-53.66	7.72
960.594	38.45	35.66	-38.14	8.51
960.802	35.46	33.95	-31.96	8.41
961.218	33.40	33.61	-16.92	8.42
961.489	30.61	32.69	-27.37	8.12
961.698	28.98	31.83	-38.98	8.18
961.890	26.99	30.42	-40.17	7.90
963.954	24.42	30.40	-13.75	7.71
964.163	19.35	31.23	28.22	7.58
964.498	18.30	32.06	52.70	7.67
964.706	19.77	35.97	-85.03	7.69
964.915	21.80	42.99	-80.70	7.69
965.124	21.44	48.36	71.85	8.04
965.458	16.98	53.63	42.99	8.30
965.666	9.98	57.99	10.62	7.57
965.937	3.34	57.20	-41.15	7.39
966.227	2.20	53.44	80.77	7.44
966.498	2.25	51.29	56.86	7.47
968.626	4.34	52.58	7.84	7.87
968.834	9.19	52.62	25.80	7.17
970.482	15.76	54.60	0.81	6.53
970.674	26.69	54.88	14.86	7.01
970.883	35.21	51.17	51.20	7.61
971.154	37.22	48.03	75.78	7.72
971.715	38.06	46.41	76.55	7.77
971.922	39.73	37.34	87.23	7.62
972.114	39.77	31.20	-77.73	7.99
972.466	39.71	30.16	-71.38	8.27
973.842	40.28	28.76	-85.29	7.77
974.050	39.84	22.47	-72.86	7.71
974.322	38.95	18.61	-64.92	8.15
974.594	35.04	13.71	-33.53	7.81
974.803	32.82	12.28	-24.34	8.06
975.010	29.45	12.31	-4.71	7.87
975.202	23.61	13.23	7.80	7.94
975.554	16.84	14.85	9.24	8.00
975.825	11.55	16.59	18.76	8.31
976.514	12.14	18.44	61.28	7.83
976.786	8.33	31.29	72.23	7.87
976.995	6.35	39.37	73.01	8.29
977.202	5.12	48.94	-85.84	7.70
977.538	8.41	56.08	-34.65	7.78
977.746	13.80	57.22	0.06	7.59
977.955	18.24	56.35	19.04	7.77
978.226	20.04	55.40	51.03	7.73
979.602	28.72	52.96	21.14	6.83
979.810	39.03	46.27	50.59	7.01
980.081	43.64	36.95	78.32	7.72
980.354	44.92	23.87	87.60	6.99
980.563	44.26	15.59	-73.05	7.13
980.770	43.12	11.61	-71.15	7.90
982.003	40.84	9.92	-43.93	7.43
982.211	37.96	8.08	-42.07	7.92
982.755	31.81	8.65	-4.79	7.11
983.027	20.57	6.59	-11.17	7.60
983.234	14.29	4.87	-18.90	7.67
983.586	12.90	4.38	-34.59	6.26
984.545	14.35	4.99	26.69	5.82
984.755	15.69	8.18	-74.33	7.32
984.962	19.52	12.20	-52.05	7.44
985.234	22.49	15.08	-54.41	7.95
985.921	26.49	17.88	-40.35	7.22
986.115	37.84	27.51	-46.11	7.04
986.401	48.98	42.57	-77.08	7.41
986.674	46.83	53.73	29.55	7.23
986.882	41.58	55.58	-1.22	7.41
987.090	39.94	55.94	-5.06	8.19
987.427	37.51	55.11	-18.24	8.18
987.698	28.92	53.38	-19.14	7.90
987.970	21.60	53.55	-6.15	7.89
988.242	9.25	53.52	-15.09	7.38
988.594	7.57	53.65	-33.25	6.68
988.866	4.55	50.24	-85.67	7.25
989.074	4.43	48.11	61.98	7.78
991.890	13.94	51.69	-7.41	7.25
992.098	26.23	53.15	15.63	6.91
992.435	40.80	46.15	53.06	7.49
992.707	44.83	38.30	80.65	7.60
992.915	44.92	36.04	-81.99	8.39
994.706	41.66	32.20	-47.43	7.66
994.899	39.14	29.45	-48.37	7.66
995.185	36.62	25.23	-62.38	7.74
995.459	33.12	18.52	-49.16	7.72
995.666	29.89	15.96	-27.39	7.51
995.938	22.11	13.11	-19.28	7.62
996.146	18.16	12.66	4.82	7.46
996.481	12.95	17.78	51.94	8.07
996.754	12.65	19.46	52.05	7.16
997.026	13.34	22.82	-86.01	7.45
997.314	17.51	32.65	-74.55	7.50
997.586	22.75	47.43	-67.28	7.42
997.857	25.21	53.01	-78.69	7.47
998.467	19.90	55.33	21.01	7.40
998.674	16.38	56.83	10.67	7.83
998.883	10.97	56.93	-19.23	7.43
999.090	8.37	56.44	-48.70	7.73
999.442	5.88	52.35	84.70	8.01
1000.115	6.15	51.02	71.60	8.26
1001.154	5.87	52.66	42.38	6.65
1001.490	23.40	52.27	17.04	6.54
1001.699	32.77	48.99	42.46	7.44
1001.970	36.24	44.30	60.73	7.87
1002.179	38.27	40.59	79.35	7.69
1002.531	38.64	38.36	-87.83	8.08
1004.162	34.18	37.03	-32.25	7.36
1004.514	26.35	34.13	-27.82	8.14
1004.722	23.17	32.96	-27.02	7.39
1004.994	21.78	32.08	-32.55	7.48
1005.747	22.80	32.86	-50.83	5.88
1006.162	23.68	27.21	70.05	7.19
1006.498	28.80	16.35	59.37	7.69
1006.770	30.93	14.03	35.97	7.83
1007.058	32.76	12.49	41.51	7.37
1008.146	32.51	13.73	21.26	6.49
1008.499	42.10	16.79	-49.39	7.23
1008.706	46.35	23.75	-76.78	7.57
1008.978	47.51	36.50	89.81	7.21
1009.250	45.52	49.58	51.21	7.30
1009.586	34.09	54.59	-8.52	7.59
1009.858	29.48	53.77	-20.50	7.67
1010.627	24.05	53.60	-11.43	7.12
1010.899	12.04	52.49	-11.06	7.19
1011.171	5.97	52.60	-6.29	7.87
1011.507	3.59	53.52	11.42	7.44
1011.714	2.46	54.85	28.99	7.42
1011.921	2.01	55.95	40.71	8.90
1012.466	3.33	55.36	57.96	6.59
1012.946	3.36	53.95	-10.29	5.45
1013.507	3.86	48.17	57.49	7.46
1013.778	4.84	45.85	28.27	7.58
1016.530	6.30	45.09	38.51	8.43
1016.802	9.33	40.81	53.95	8.73
1017.010	11.89	36.21	59.31	8.64
1017.283	14.76	30.28	55.81	8.70
1017.553	16.48	27.24	56.36	8.70
1017.761	15.99	26.36	79.36	7.50
1017.969	15.36	24.45	-70.59	7.93
1018.241	14.26	23.16	-62.65	6.98
1018.930	14.86	24.21	-72.10	5.24
1020.290	15.29	23.24	79.10	6.34
1020.850	20.91	21.49	6.57	7.13
1021.058	29.91	20.84	-14.50	7.21
1021.459	44.75	22.76	-7.81	7.41
1021.730	46.97	22.47	13.45	7.31
1022.018	52.25	14.07	69.00	6.74
1022.290	52.93	5.41	-64.44	6.81
1022.562	51.80	4.34	-26.27	7.40
1023.587	51.25	7.63	61.16	7.32
1023.794	50.31	14.76	68.96	7.46
1024.066	50.01	17.00	57.09	7.00
1025.170	52.52	25.35	-88.41	6.44
1025.506	51.28	41.68	58.16	7.47
1025.714	49.24	43.69	24.32	7.40
1026.466	40.31	45.38	-4.40	7.58
1026.674	39.18	45.59	-5.56	7.72
1027.090	35.78	44.67	-20.65	7.61
1027.425	27.74	44.71	-3.89	7.44
1027.634	22.89	44.74	-17.14	7.54
1027.842	19.30	43.12	-49.65	7.46
1028.947	20.23	42.62	79.43	7.17
1029.154	25.07	34.07	67.61	7.26
1029.490	22.26	16.16	-63.51	7.16
1029.699	18.12	11.81	-44.04	7.55
1029.970	15.93	10.22	-40.93	7.67
1030.930	15.02	9.36	-49.07	8.30
1031.203	13.42	6.70	-67.06	7.65
1031.762	13.42	5.30	-85.19	7.59
1032.578	14.11	6.55	75.64	6.64
1033.682	15.00	7.59	55.93	7.71
1033.954	14.18	9.06	45.08	6.55
1034.162	18.81	10.04	-13.51	7.10
1034.498	39.75	18.00	-40.37	6.53
1034.770	47.65	35.22	84.37	6.71
1035.059	45.04	46.84	30.36	7.36
1035.330	40.80	49.04	-12.16	7.77
1036.146	30.42	50.84	-8.08	7.11
1036.418	21.47	50.53	-41.88	7.70
1036.706	19.89	49.42	-54.76	7.75
1038.067	15.53	50.16	-14.22	7.67
1038.418	6.83	48.65	-71.94	7.77
1039.378	15.28	49.60	11.29	6.81
1039.650	31.72	48.28	12.76	6.86
1039.923	44.45	42.85	54.26	7.42
1040.130	46.42	39.42	83.99	8.01
1041.506	47.45	33.53	-84.26	6.62
1041.714	46.73	29.59	-73.27	8.76
1041.906	44.65	26.75	-47.31	7.89
1042.194	42.01	25.02	-26.05	7.88
1043.842	42.99	25.59	-5.66	6.31
1044.113	39.90	35.53	58.30	7.01
1044.450	29.32	53.56	18.36	7.02
1044.659	23.66	54.95	-31.91	7.18
1044.866	24.75	56.20	-55.75	7.86
1046.578	9.80	55.16	-60.63	7.28
1046.786	8.81	54.84	86.01	7.67
1048.850	17.49	56.20	5.87	6.66
1049.059	32.84	53.98	27.81	6.53
1049.458	43.07	41.58	-83.57	8.62
1049.939	43.72	30.84	-74.10	7.09
1050.211	40.49	21.39	-50.57	7.97
1050.834	37.47	14.94	-49.32	6.70
1051.106	29.87	9.09	-4.82	7.61
1051.939	25.19	19.87	53.90	7.47
1052.147	21.02	24.95	29.24	7.73
1052.546	6.73	35.81	41.90	7.62
1052.755	4.24	38.94	35.20	7.27
1053.299	5.56	37.80	-1.49	5.16
1055.506	6.97	45.68	-77.21	7.10
1055.778	17.82	56.50	-20.02	7.32
1056.049	30.69	56.40	27.21	6.66
1056.467	38.11	52.73	59.78	7.93
1058.179	42.63	46.12	69.64	6.86
1058.514	46.49	32.66	-86.95	7.60
1058.802	44.72	27.37	-59.67	7.55
1059.074	42.83	25.25	-46.79	7.95
1059.410	39.25	21.52	-34.75	8.27
1060.786	29.27	17.21	-24.45	7.25
1060.995	19.54	13.06	-19.79	7.60
1061.201	14.71	11.43	-12.67	7.74
1062.018	13.98	12.27	43.86	7.19
1062.291	14.81	13.23	80.32	7.08
1062.705	18.22	32.66	-71.69	7.77
1062.914	23.76	42.55	-52.49	7.14
1063.186	34.69	50.91	-39.23	7.34
1063.458	42.20	54.67	-35.96	7.89
1063.731	51.51	57.26	25.80	7.43
1063.938	53.69	54.66	76.45	7.21
1064.147	53.93	52.15	-78.74	8.07
1064.498	53.51	51.08	-73.91	8.07
1065.041	52.48	49.53	-61.40	7.85
1065.313	49.29	44.04	-57.29	7.89
1065.938	49.26	45.16	-29.25	7.01
1066.755	45.88	46.61	1.34	7.65
1067.026	31.55	49.71	-9.41	7.39
1067.297	22.86	48.65	-39.70	7.71
1067.651	21.80	48.72	-37.93	6.53
1067.858	17.00	50.56	-1.50	7.03
1068.066	11.09	51.30	-41.94	7.27
1068.466	10.01	47.95	80.17	7.82
1069.635	12.12	47.44	33.32	7.72
1069.906	23.36	40.07	45.70	7.49
1070.194	26.71	31.18	72.82	7.61
1070.467	30.33	18.26	75.20	6.85
1070.738	34.87	9.09	46.99	7.19
1071.010	38.95	5.88	34.11	7.52
1071.634	48.80	5.75	-1.43	7.51
1071.905	51.61	6.71	-35.29	7.39
1072.514	52.08	5.82	-3.86	5.67
1072.802	51.78	7.51	-77.81	6.39
1073.074	50.74	14.29	59.45	7.06
1073.346	49.80	19.75	80.79	7.40
1073.762	50.13	38.79	81.25	6.81
1074.034	46.43	48.55	40.04	7.35
1074.306	36.77	51.95	-0.45	7.59
1074.642	32.53	52.61	-12.85	7.83
1074.930	28.21	51.33	-31.08	7.57
1075.602	16.33	52.47	-17.53	7.30
1075.890	12.00	51.17	-63.11	7.42
1077.122	12.89	52.17	-85.96	6.17
1077.393	13.92	52.09	62.39	6.48
1077.667	27.01	46.17	33.48	6.99
1077.937	35.37	37.99	71.41	7.31
1078.211	34.84	30.28	-78.99	8.00
1078.627	33.93	29.47	-60.02	8.09
1079.458	35.20	26.36	88.31	7.37
1079.730	32.07	16.94	-44.24	7.53
1080.002	24.73	12.83	-27.71	7.74
1080.274	18.87	11.33	-17.06	7.85
1080.627	14.42	10.96	-17.02	7.77
1080.898	11.22	8.71	-34.86	8.00
1081.170	7.63	5.40	-41.06	8.05
1081.585	6.53	4.34	-30.94	7.91
1082.130	7.43	5.47	0.89	6.68
1084.194	8.52	5.25	-28.46	4.46
1085.426	7.60	3.81	-53.27	7.56
1085.969	8.60	5.77	47.65	5.50
1086.178	10.70	9.54	-72.66	7.59
1086.594	23.39	30.04	-63.26	7.13
1086.994	36.82	50.25	-32.32	7.29
1087.282	47.20	52.07	40.72	6.72
1087.619	49.89	49.81	68.36	8.02
1089.202	48.64	49.08	-59.51	7.45
1089.539	45.32	47.00	-39.42	7.70
1090.643	45.04	48.45	0.50	6.73
1090.915	32.27	53.94	3.23	7.20
1091.187	25.06	53.75	-52.46	7.34
1093.794	34.24	47.64	40.69	7.07
1094.002	40.31	39.37	70.70	7.30
1094.274	41.92	30.70	-84.09	7.33
1094.625	41.16	24.59	-73.21	7.56
1094.897	42.96	18.65	-88.40	6.44
1095.170	40.47	10.34	-43.44	7.53
1095.779	35.62	8.36	-8.14	7.40
1096.067	32.75	8.58	-0.80	8.01
1096.609	33.88	9.83	39.31	6.92
1096.882	29.94	24.09	62.28	7.08
1097.154	23.12	38.19	44.49	7.60
1097.506	14.39	44.00	16.50	7.67
1097.777	9.67	47.87	34.90	8.08
1098.049	4.11	54.38	41.97	7.80
1098.467	3.39	56.58	-9.19	6.42
1098.674	2.81	55.67	-48.56	6.73
1098.946	1.78	53.71	59.54	7.24
1100.113	11.31	49.87	37.59	7.82
1100.515	12.87	48.31	41.51	8.69
1101.410	24.28	43.79	46.93	7.41
1101.682	32.77	31.22	65.20	7.37
1101.891	36.18	21.79	68.96	7.06
1102.163	38.29	15.31	69.08	7.94
1103.538	40.54	14.38	46.11	7.63
1103.810	42.21	13.07	84.08	7.66
1104.081	41.56	10.74	-69.11	7.97
1104.642	35.93	8.58	-24.98	7.26
1104.914	27.48	6.03	-18.11	7.84
1105.187	20.89	5.23	-10.85	7.64
1105.602	17.80	5.01	-7.15	6.79
1105.873	17.82	7.65	58.60	7.05
1106.146	14.78	19.24	70.96	7.71
1106.561	11.51	29.20	65.70	7.71
1106.834	12.13	36.45	-71.44	7.85
1107.106	19.69	46.71	-48.53	7.37
1107.458	33.89	53.67	-5.63	7.57
1107.730	46.71	52.46	21.58	7.16
1108.002	51.11	47.79	75.82	7.82
1108.274	50.84	46.37	-84.42	8.30
1108.898	50.13	43.74	-73.83	7.78
1109.170	47.70	39.42	-65.17	8.04
1110.610	38.94	40.74	-16.71	7.47
1110.882	32.55	37.74	-38.71	7.62
1111.155	31.22	36.38	-42.47	7.77
1112.115	31.97	37.12	-34.54	6.20
1112.466	27.69	41.74	30.02	7.09
1112.738	17.04	51.45	14.75	6.97
1113.010	10.72	52.96	-55.78	7.32
1113.635	10.16	49.04	86.63	7.73
1114.595	9.58	50.13	86.01	6.41
1115.139	19.45	46.76	27.83	7.20
1115.474	36.22	36.59	62.70	7.38
1115.762	38.70	29.88	84.43	8.06
1116.305	37.01	25.74	-54.54	7.39
1116.722	33.09	21.58	-43.26	7.93
1116.994	26.49	17.35	-36.74	7.39
1117.267	20.27	12.17	-42.73	7.83
1118.018	21.03	12.92	-48.88	6.66
1118.978	22.08	13.75	-15.84	5.74
1119.250	20.51	21.79	68.67	6.96
1119.603	15.21	42.36	64.07	7.40
1119.874	13.77	50.99	86.81	7.63
1120.147	18.77	55.64	-37.06	7.28
1120.563	39.61	56.56	14.82	6.98
1120.770	45.66	52.93	58.23	7.31
1121.457	45.50	51.72	-88.10	7.91
1121.730	42.42	39.99	-77.49	7.24
1121.938	40.38	29.93	-88.19	7.09
1122.210	41.59	18.58	76.55	7.12
1122.546	41.72	11.42	-52.86	7.98
1122.754	40.62	12.00	-30.98	7.71
1123.026	30.10	9.75	-12.29	7.62
1123.298	21.21	8.72	-10.12	7.39
1123.715	8.69	10.50	46.56	7.76
1123.987	4.99	19.21	70.05	8.20
1124.258	3.72	28.95	85.88	7.96
1124.610	2.70	46.53	87.71	7.91
1124.883	2.71	54.82	-69.81	7.81
1125.154	3.87	55.18	-27.70	7.60
1125.569	12.29	55.38	28.01	7.82
1127.489	17.16	55.65	14.55	6.77
1127.763	34.22	51.68	33.86	6.91
1128.034	39.93	47.53	64.54	7.95
1129.411	44.43	31.88	89.98	7.14
1129.682	44.13	20.80	-76.04	7.07
1129.955	41.92	16.53	-53.09	7.76
1130.243	34.85	10.54	-32.27	6.99
1130.643	30.89	9.15	-6.17	7.76
1131.203	25.92	10.09	11.16	7.25
1131.539	14.77	12.30	5.25	7.61
1131.811	13.10	12.81	14.41	7.65
1132.082	11.88	14.18	30.23	7.18
1132.563	11.83	29.37	80.34	6.92
1132.849	10.92	44.14	-89.36	7.26
1133.122	12.64	52.62	-53.21	7.90
1133.523	30.05	57.02	-7.18	6.91
1133.811	42.73	56.24	18.00	7.11
1134.082	47.91	51.94	65.21	8.27
1134.483	47.83	43.11	-86.11	7.52
1134.771	47.47	36.56	-88.16	7.24
1135.043	46.94	23.80	-82.87	7.57
1135.315	44.56	18.59	-52.28	7.41
1135.795	31.33	11.93	-15.20	7.15
1136.067	22.34	10.73	-8.56	7.27
1136.483	15.51	12.72	41.16	7.58
1136.755	11.35	20.19	53.74	7.65
1137.027	8.43	32.10	77.52	7.63
1137.298	5.84	46.82	73.98	7.67
1137.715	4.45	53.00	63.83	7.32
1138.883	4.61	51.95	50.73	5.36
1140.179	14.19	53.91	2.32	7.09
1140.594	25.32	49.20	52.13	7.81
1141.554	29.53	48.40	32.93	7.02
1141.826	42.07	38.87	62.62	7.23
1142.115	47.11	27.09	73.86	7.47
1142.594	48.61	12.56	-74.06	7.68
1143.618	47.86	11.60	-44.81	7.42
1143.890	40.77	9.96	11.48	7.29
1144.161	39.46	10.08	15.82	7.37
1144.850	33.69	12.45	18.69	6.79
1145.123	22.20	13.61	-0.46	7.33
1145.538	18.10	13.16	-0.85	7.27
1145.810	13.67	21.19	60.80	7.13
1146.082	8.78	33.51	60.08	7.77
1146.498	6.36	44.35	53.84	7.90
1146.770	2.54	53.08	72.62	7.74
1147.043	3.21	55.46	-59.43	7.06
1147.730	5.05	55.21	-16.28	7.72
1148.002	19.24	54.18	22.55	7.04
1148.290	21.77	53.07	36.05	7.88
1149.169	28.45	53.21	17.36	6.81
1149.585	41.30	40.38	78.24	7.35
1149.858	41.18	34.81	-81.83	7.78
1150.481	40.83	33.45	-61.26	7.66
1150.754	36.56	28.44	-55.50	7.52
1151.026	34.32	23.64	-70.12	7.67
1151.298	34.14	22.62	-69.95	8.23
1151.714	33.67	21.25	-73.71	7.92
1152.946	33.49	19.22	-87.66	7.68
1153.218	33.92	13.27	-87.19	7.62
1153.634	33.96	10.89	-79.19	8.24
1153.906	32.98	8.27	-64.23	8.39
1154.178	31.51	7.62	-49.52	8.15
1154.594	24.15	3.24	-25.64	8.09
1154.866	20.22	2.69	-20.64	7.81
1155.138	16.46	2.65	-13.39	8.36
1155.491	11.39	6.22	50.18	7.70
1156.659	15.90	13.38	-73.34	7.14
1156.931	19.62	21.20	-78.51	8.20
1157.555	37.02	33.78	-45.84	6.80
1157.827	47.69	47.75	84.42	7.41
1158.034	45.55	52.75	26.12	7.45
1158.435	40.11	54.29	-8.65	7.97
1159.267	38.96	53.78	-38.78	7.40
1159.683	36.71	51.25	-72.85	7.11
1160.018	40.78	47.73	62.96	6.65
1160.291	45.69	34.88	-85.72	7.17
1160.706	43.50	21.05	-71.12	7.21
1160.978	38.20	14.19	-26.66	7.31
1161.251	30.91	13.02	-1.80	7.43
1161.603	20.65	13.08	-3.69	7.43
1161.874	19.52	12.72	-5.02	7.90
1162.146	16.34	14.20	15.30	7.29
1162.563	8.65	27.15	63.98	7.87
1162.835	6.36	41.80	78.32	7.93
1163.170	8.04	54.61	-56.97	7.67
1163.586	26.77	57.15	-1.94	7.13
1163.859	43.00	55.78	7.93	6.80
1164.130	48.86	52.59	57.17	7.30
1164.546	49.93	48.41	88.41	8.34
1165.506	48.86	35.09	-84.06	7.30
1165.779	48.24	30.90	-79.03	7.98
1166.130	47.76	18.75	-80.18	7.09
1166.530	44.20	10.90	-42.82	7.42
1166.817	40.41	9.65	3.33	7.69
1167.506	33.98	10.53	6.30	7.31
1167.778	20.92	12.10	5.83	7.22
1168.114	12.58	12.98	19.26	7.74
1168.529	10.44	22.51	71.23	7.38
1168.801	11.09	32.30	-84.42	7.66
1169.074	11.89	49.22	79.19	7.38
1169.555	9.82	55.24	77.20	7.55
1169.826	10.94	55.10	-53.62	7.09
1170.098	23.37	57.90	7.52	7.14
1170.594	37.23	49.21	80.83	7.65
1170.866	37.16	46.69	89.65	7.80
1172.643	45.38	25.34	72.73	7.12
1172.914	46.57	14.43	-77.71	7.34
1173.265	42.50	9.56	-50.83	7.80
1173.682	40.72	8.30	-33.62	8.58
1174.018	38.02	7.51	-22.03	8.09
1174.292	35.32	6.98	-22.11	7.94
1174.834	34.41	5.39	-56.88	7.85
1175.523	35.84	5.81	81.52	6.85
1176.561	29.98	9.16	29.91	7.37
1176.898	28.67	9.96	31.69	7.60
1177.249	29.09	19.20	75.40	7.14
1177.586	22.47	38.94	48.82	7.10
1177.859	13.00	47.47	13.13	7.30
1178.130	7.53	49.36	-26.00	7.05
1178.611	7.03	47.69	-73.36	7.46
1178.883	6.21	44.47	-86.31	7.70
1179.650	6.80	45.48	53.79	6.74
1179.921	7.91	45.69	22.51	7.04
1180.194	22.78	44.89	8.50	6.44
1180.610	43.09	38.16	48.26	6.85
1180.881	48.70	28.52	61.42	6.86
1181.154	50.73	15.85	-69.28	6.68
1181.634	47.19	12.03	-15.32	7.62
1182.529	39.50	11.76	2.34	7.13
1182.804	32.80	13.17	17.91	7.47
1183.074	28.82	20.76	54.40	7.35
1183.490	24.12	25.87	8.29	7.47
1183.826	22.88	26.66	8.61	7.49
1184.098	16.82	32.10	36.88	7.30
1184.578	3.27	49.90	75.54	7.75
1184.867	4.37	54.25	-58.66	7.25
1185.139	16.41	57.63	-10.04	6.91
1185.474	24.39	56.88	13.55	8.86
1185.747	33.60	54.44	16.37	6.68
1186.033	46.82	47.79	64.51	7.17
1186.306	47.29	42.81	-82.38	8.21
1186.994	44.23	31.98	-74.10	7.13
1187.266	42.07	21.33	-80.84	7.33
1187.811	33.61	14.60	-13.06	7.09
1188.161	17.30	12.06	-9.02	6.99
1188.641	10.93	10.27	-32.45	6.73
1189.666	14.75	5.95	-0.40	7.53
1189.939	20.82	6.60	-15.60	7.26
1190.275	31.51	11.33	-45.69	7.21
1190.690	42.56	18.30	-31.53	7.53
1191.315	52.00	32.56	-80.50	6.35
1191.731	51.56	49.62	47.60	7.45
1192.002	47.20	52.89	10.36	7.85
1192.338	45.74	52.25	-3.08	8.77
1192.818	43.85	51.69	-16.09	9.73
1193.505	42.49	51.43	-18.52	9.29
1194.611	39.58	50.50	-18.44	10.04
1194.946	40.59	50.97	-24.13	8.95
1195.218	43.26	50.50	-47.52	6.98
1195.698	43.40	25.60	-78.33	6.27
1195.971	43.50	10.82	-49.62	6.35
1196.257	35.37	7.55	15.90	7.01
1196.659	32.02	9.15	34.07	7.25
1198.515	33.96	13.73	88.48	7.03
1198.866	35.42	33.75	84.21	7.37
1199.139	34.35	44.16	56.53	7.42
1199.618	32.90	49.00	70.13	6.76
1199.891	35.93	52.05	-57.79	7.48
1200.225	49.58	57.21	22.98	6.69
1200.643	52.87	53.00	88.56	7.55
1201.746	49.30	43.87	-52.80	7.47
1202.563	41.79	20.80	-55.07	7.09
1202.914	38.60	16.16	-49.94	7.40
1203.251	30.92	12.02	-3.67	7.50
1203.731	19.94	11.79	-5.19	7.68
1204.003	14.37	11.88	-17.30	7.19
1204.754	15.30	11.28	-44.77	6.04
1205.522	17.27	13.48	61.13	6.31
1205.794	20.79	27.20	-80.33	7.14
1206.130	29.10	46.36	-72.39	7.41
1206.547	30.50	50.61	84.93	6.67
1207.570	32.02	50.46	-36.38	7.10
1207.842	43.55	51.55	18.92	7.05
1208.130	47.05	47.29	80.94	7.83
1210.114	44.95	27.74	-70.77	6.77
1210.594	38.96	17.91	-0.30	7.44
1211.218	36.39	29.63	72.94	7.26
1211.699	24.13	48.11	8.95	6.76
1211.971	12.55	48.97	-22.26	7.55
1212.306	9.80	47.46	-57.30	8.08
1212.786	8.24	46.49	-65.37	7.07
1214.162	9.46	46.12	69.21	7.27
1214.642	15.35	44.77	-1.69	7.69
1214.914	19.34	45.87	1.71	8.11
1215.602	27.57	46.64	21.79	7.77
1215.875	30.27	45.27	35.60	7.87
1216.835	30.75	46.30	3.43	7.42
1217.122	44.29	45.16	33.71	6.82
1217.601	49.76	41.42	47.21	8.44
1218.211	50.62	35.92	-71.33	7.90
1218.626	48.57	32.93	-51.19	8.59
1219.586	48.31	34.16	-3.95	6.59
1219.923	34.43	43.31	7.53	7.39
1220.209	30.92	44.01	6.00	9.38
1220.611	27.99	45.05	5.18	9.62
1220.882	25.65	46.06	1.91	9.30
1221.170	23.06	46.28	2.53	9.51
1221.651	18.32	50.59	9.70	7.40
1221.986	12.52	52.51	-31.18	8.38
1222.258	10.90	51.55	-52.60	8.23
1222.738	9.93	49.56	-81.08	9.01
1223.010	9.32	47.64	79.27	8.12
1223.491	22.00	46.64	23.23	6.69
1223.843	39.07	38.37	58.67	7.39
1224.115	46.06	29.53	56.64	6.90
1224.658	48.11	13.90	-63.92	7.90
1224.931	46.33	12.19	-47.45	7.83
1225.218	42.88	10.11	-26.21	7.68
1225.699	38.27	8.94	-15.26	7.77
1226.242	38.37	11.47	42.91	7.17
1226.787	26.32	39.01	54.01	7.17
1227.059	17.32	51.14	26.96	6.74
1227.539	14.28	51.91	-43.61	7.75
1227.890	11.55	49.45	-55.48	7.71
1229.266	17.78	47.67	30.27	6.59
1229.747	42.40	35.66	48.90	6.82
1230.018	46.25	27.91	83.15	6.93
1230.291	46.45	18.24	-64.97	7.42
1230.770	43.96	15.97	-26.19	8.11
1231.107	39.75	15.23	-12.69	7.14
1231.665	26.55	17.47	16.70	7.49
1232.002	23.67	18.77	10.75	6.92
1233.170	25.80	23.24	-88.57	7.52
1233.650	33.45	45.81	-72.40	7.23
1234.002	46.25	55.58	-11.65	6.74
1234.338	52.65	55.39	43.31	7.86
1235.571	51.82	50.33	-77.32	7.92
1235.922	50.81	48.89	-72.51	8.26
1236.258	48.78	42.55	-70.99	7.43
1236.675	45.29	20.94	-82.82	6.86
1237.011	44.05	10.51	-53.89	7.12
1237.906	37.84	11.12	2.62	6.87
1238.259	23.73	11.95	7.83	7.57
1238.739	14.57	25.48	68.61	7.65
1239.073	9.09	45.52	75.77	7.60
1239.554	8.36	54.17	-56.22	7.77
1239.826	14.51	56.17	-9.81	7.34
1240.177	33.15	56.79	18.48	6.98
1240.659	39.26	51.59	70.44	7.69
1242.163	39.82	40.26	-74.34	7.65
1242.643	36.68	28.97	-83.55	7.25
1242.915	35.98	18.51	-89.13	7.13
1243.266	34.56	12.46	-60.23	7.72
1243.747	27.00	7.43	-7.45	7.60
1244.834	26.11	6.96	-30.44	6.31
1246.754	33.13	23.92	-73.21	7.14
1247.042	37.10	39.97	-83.37	7.15
1247.586	37.71	48.99	-81.10	7.33
1248.195	40.84	50.91	-43.13	7.45
1248.754	49.83	53.30	48.13	7.75
1249.090	50.73	49.78	83.36	7.33
1249.650	50.22	45.98	-70.19	8.23
1250.402	44.31	39.93	-48.00	7.59
1250.946	41.09	36.16	-50.64	7.41
1251.218	36.74	33.91	-31.43	7.53
1251.777	34.36	32.99	-23.80	6.90
1252.659	26.55	37.96	21.27	7.35
1253.009	10.81	50.36	37.78	7.41
1253.347	2.59	56.01	-49.38	7.31
1253.826	3.47	52.91	64.14	8.06
1254.179	4.81	51.02	29.03	7.14
1254.657	14.80	50.36	27.57	7.56
1255.827	21.25	51.66	11.37	6.56
1256.162	40.89	43.35	52.22	7.13
1256.707	51.59	23.88	59.74	7.36
1257.058	53.69	13.02	-76.37	7.32
1257.394	50.05	8.81	-35.52	7.87
1257.955	46.05	7.75	-9.62	7.28
1258.226	34.32	8.18	7.59	7.05
1258.834	33.04	8.66	28.60	7.53
1259.185	27.85	21.46	61.80	7.12
1259.666	23.87	45.32	-86.66	7.44
1260.002	32.89	54.80	-35.95	7.42
1260.353	48.27	57.04	17.68	6.90
1260.834	52.14	53.60	57.46	7.67
1261.714	52.03	43.11	-72.67	8.02
1262.609	49.89	38.52	-63.48	7.44
1262.884	45.43	29.35	-61.78	7.29
1263.235	40.61	22.06	-47.75	8.40
1264.803	36.32	20.14	-28.18	7.54
1265.155	29.02	17.59	-4.53	7.33
1265.635	18.03	17.48	7.62	7.64
1266.322	14.37	32.62	68.26	7.17
1266.866	9.92	51.74	-88.87	7.23
1267.219	19.88	54.63	-17.34	6.63
1267.762	46.37	50.00	52.64	7.37
1268.721	46.91	36.71	-84.50	7.78
1269.059	46.24	34.30	-68.49	7.52
1269.618	37.51	19.46	-70.81	7.64
1269.955	33.07	16.94	-34.78	6.59
1270.306	17.94	9.39	-15.06	7.07
1270.787	8.81	12.39	57.53	7.71
1271.059	6.80	26.01	79.46	7.29
1271.603	5.11	45.85	85.07	7.79
1271.939	5.80	53.28	88.92	8.20
1272.771	20.06	57.37	-8.67	7.12
1273.106	39.04	55.92	4.43	6.64
1273.667	49.13	48.91	84.12	8.00
1274.899	45.79	40.86	-63.85	7.26
1275.234	42.74	28.50	-85.56	6.97
1275.794	47.54	8.70	71.55	7.29
1276.194	46.83	9.51	79.84	6.60
1276.755	51.52	5.86	53.45	7.45
1277.635	49.59	6.99	-36.00	6.30
1277.986	40.47	11.84	32.66	7.10
1278.323	37.69	16.40	63.05	7.11
1278.883	38.75	48.56	-70.43	7.29
1279.218	50.47	55.37	4.86	7.08
1279.843	53.23	52.81	72.16	7.81
1280.722	50.27	46.32	-64.58	7.85
1281.697	36.52	44.81	-36.19	7.88
1282.035	34.90	43.68	-43.73	7.89
1282.929	13.64	53.04	-36.81	7.42
1283.266	11.10	50.72	-80.70	7.53
1283.746	12.07	51.27	74.99	7.62
1284.643	38.51	39.80	54.78	6.57
1284.978	41.94	26.08	-45.15	7.21
1285.875	41.38	25.15	-41.20	7.97
1286.227	33.28	13.63	-30.77	6.93
1286.834	12.79	12.47	24.08	7.66
1287.187	8.41	21.06	64.85	8.26
1287.731	5.09	41.38	81.47	7.34
1288.067	6.65	56.18	-47.95	7.62
1288.690	28.34	56.06	3.73	6.62
1289.027	47.95	53.04	38.89	6.58
1289.379	50.22	48.43	-77.26	8.44
1290.962	46.06	32.42	-50.62	8.12
1291.362	38.08	26.51	-40.21	7.40
1291.923	35.12	23.89	-50.75	7.29
1292.258	31.32	15.67	-42.44	6.80
1292.803	15.94	8.59	-3.62	7.05
1293.153	6.96	17.66	70.03	7.59
1293.698	6.70	45.75	89.31	7.64
1294.051	7.96	54.65	-56.19	7.60
1294.386	22.33	57.35	-2.84	6.86
1295.010	49.92	54.13	24.94	7.18
1295.969	49.74	43.44	-77.52	8.00
1297.330	47.97	42.70	-48.42	7.60
1297.954	33.71	34.69	-33.34	8.08
1298.307	31.40	34.11	-13.63	7.02
1298.851	12.04	47.37	-32.43	6.36
1299.267	10.80	46.68	-87.54	7.46
1304.819	11.28	48.22	51.93	6.40
1305.155	35.99	50.75	16.73	5.83
1305.778	47.08	46.39	-66.97	7.80
1309.138	48.62	40.07	-84.43	6.31
1309.683	47.52	29.41	-29.02	8.10
1310.659	38.59	16.85	-20.41	6.63
1311.059	34.01	16.66	45.51	7.68
1311.618	32.45	18.70	59.16	8.21
1311.955	33.88	20.56	-86.77	7.93
1312.290	42.40	45.03	89.94	7.47
1312.850	37.95	55.44	-26.60	7.44
1314.626	39.24	55.27	-66.64	6.25
1315.043	44.90	41.19	-65.11	7.12
1316.003	35.39	46.87	3.38	6.94
1316.354	27.45	47.32	-42.77	7.76
1317.987	11.92	47.94	-67.53	7.92
1318.962	17.16	47.78	28.15	6.67
1319.298	36.17	39.29	52.91	7.54
1319.923	42.27	28.93	-89.18	7.56
1320.323	42.52	20.15	-62.78	8.97
1332.274	35.30	25.58	26.88	7.70
1332.882	46.25	50.21	2.19	5.74
1333.235	51.05	47.59	-82.03	7.62
1337.826	41.02	51.70	-21.32	7.97
1338.723	39.85	51.25	-34.41	8.54
1339.059	39.90	49.03	-85.99	7.49
1339.618	42.93	31.47	-64.24	7.42
1339.954	42.10	28.94	-46.09	8.56
1340.914	37.15	19.84	-50.95	8.30
1341.331	22.67	9.04	-2.48	7.50
1341.811	16.99	11.17	45.22	7.81
1342.225	18.36	11.75	74.16	7.31
1342.770	21.49	19.76	-68.97	8.82
1343.187	39.06	22.14	-33.79	6.03
1343.730	50.30	54.10	26.04	6.75
1345.026	50.59	55.07	-2.19	8.18
1347.714	50.20	36.74	-55.56	7.02
1348.051	50.02	35.30	-44.03	7.82
1348.674	45.24	16.74	-11.26	8.66
1349.363	34.95	11.92	-0.71	8.41
1349.971	31.31	15.13	52.78	8.45
1350.866	38.39	23.38	-72.36	7.15
1351.203	46.03	43.21	83.42	7.27
1351.827	45.04	49.63	29.28	7.55
1352.163	46.37	54.72	77.68	6.82
1352.786	44.73	57.11	0.76	7.09
1353.122	40.44	56.29	-45.15	7.61
1354.019	41.85	55.46	-84.24	7.45
1354.370	45.88	43.17	-69.54	7.05
1354.915	43.60	39.30	-37.66	8.10
1355.331	44.47	31.89	-71.39	6.25
1355.939	41.31	22.65	-21.98	7.66
1356.291	33.25	21.15	-6.79	7.99
1356.978	30.37	20.67	-0.08	8.32
1358.003	21.59	11.45	-6.48	7.31
1358.417	14.42	16.58	57.22	7.86
1358.963	13.80	26.57	-89.98	8.50
1359.314	14.66	40.05	-76.43	7.90
1359.922	37.03	54.64	9.59	6.99
1360.275	46.78	49.10	82.96	7.44
1360.818	46.78	47.07	-80.13	7.77
1361.155	46.15	29.43	-71.65	7.22
1361.715	37.33	15.56	-48.16	7.07
1362.114	20.75	6.41	12.55	6.71
1362.883	17.97	7.35	29.64	7.69
1363.907	23.59	16.04	-75.20	8.63
1364.866	50.50	23.86	-75.86	6.67
1365.282	50.45	41.18	63.21	7.09
1365.826	47.24	51.11	-1.57	8.80
1367.810	41.22	51.48	-8.11	9.43
1368.227	37.55	51.30	-7.95	9.50
1368.914	46.78	38.66	86.11	6.86
1369.330	48.04	34.05	-77.98	8.47
1369.938	45.59	12.24	-28.19	7.48
1370.290	34.39	9.81	14.15	7.16
1370.978	21.86	13.93	57.61	7.89
1371.315	21.15	15.82	63.89	8.59
1371.939	33.62	36.04	-64.74	7.27
1372.338	47.85	55.06	-11.46	6.99
1373.027	52.27	54.40	56.97	7.68
1373.987	50.75	48.96	-65.20	7.99
1374.339	49.92	47.50	-54.31	7.52
1375.778	42.23	32.58	-46.83	7.91
1376.194	36.35	28.80	-33.93	7.62
1376.739	22.53	23.31	-24.77	8.90
1377.075	17.87	21.01	-31.50	8.92
1377.698	15.68	19.33	-39.54	7.51
1378.114	12.77	21.79	38.10	7.82
1378.658	12.84	47.73	-55.76	6.89
1378.995	28.69	52.76	-0.56	6.67
1379.346	46.04	48.57	63.23	7.02
1379.971	46.40	41.77	-70.77	7.54
1380.370	45.42	40.64	-56.66	7.87
1380.931	46.28	38.87	-81.53	7.30
1381.267	43.61	18.73	-60.58	7.07
1381.891	22.61	10.01	5.96	6.91
1382.289	15.66	15.98	60.46	7.59
1382.978	7.94	48.88	77.31	7.99
1383.330	7.20	52.01	84.73	7.42
1384.018	9.18	53.96	-27.49	9.21
1384.354	11.78	54.76	-27.83	9.89
1385.043	14.53	56.94	-31.31	10.39
1385.666	13.61	54.82	17.53	7.72
1386.066	14.18	52.13	46.36	7.19
1386.690	41.72	22.18	9.63	6.29
1387.107	55.01	29.09	73.15	7.15
1387.714	50.79	53.30	48.36	7.02
1388.066	48.51	56.35	-14.43	7.78
1389.234	44.66	55.24	-17.73	8.07
1390.194	45.85	54.95	75.91	6.77
1391.971	51.51	38.59	-63.44	7.76
1393.074	49.80	25.26	-69.67	7.26
1393.762	35.13	10.36	-7.27	7.23
1394.242	24.00	8.90	4.56	8.27
1394.850	22.06	21.93	89.61	7.65
1395.266	24.20	26.05	-80.32	7.95
1395.890	47.54	49.27	79.58	6.56
1396.290	39.64	56.71	-24.06	7.56
1398.082	44.26	46.49	-78.73	6.93
1398.770	42.69	44.63	-22.74	7.82
1399.171	31.47	43.20	-7.53	8.13
1399.858	26.43	42.92	-45.47	7.41
1400.338	23.84	47.34	31.40	7.66
1401.026	6.74	51.59	89.47	7.54
1401.443	7.43	50.16	63.51	8.32
1402.818	35.95	40.12	42.90	6.77
1403.234	49.02	29.44	50.00	7.17
1403.907	44.54	15.46	-39.16	7.54
1405.010	28.96	14.23	8.28	8.33
1405.426	29.95	19.09	82.34	7.32
1406.035	35.78	40.92	84.26	8.24
1406.723	43.51	56.91	37.14	7.55
1407.139	34.92	57.49	-22.19	7.68
1407.827	26.84	52.96	-40.46	8.02
1408.243	24.97	52.28	-43.06	7.98
1408.931	39.55	37.02	55.08	6.67
1409.331	48.84	17.25	-74.22	7.08
1410.162	45.32	12.30	-46.54	7.70
1410.914	39.28	14.20	-8.34	7.23
1411.394	32.04	27.29	48.35	6.91
1412.082	12.47	52.78	-44.52	7.44
1412.771	10.65	50.01	87.34	8.14
1413.171	9.02	45.85	-79.25	8.00
1414.755	37.25	41.76	38.66	6.11
1415.171	47.36	24.45	88.05	6.73
1415.986	32.82	10.44	-25.89	7.37
1416.467	19.66	7.57	0.62	7.78
1417.299	13.18	32.10	82.68	7.26
1418.050	10.85	53.87	-78.37	7.07
1418.802	20.89	55.26	45.29	7.98
1419.970	37.52	48.76	55.19	7.33
1420.387	39.40	45.53	78.38	8.61
1421.139	41.20	33.99	-89.51	6.66
1421.762	40.28	13.92	-88.81	7.82
1422.163	38.44	10.88	-48.12	7.44
1422.851	22.87	9.86	25.73	7.10
1423.329	17.46	23.60	67.25	7.71
1424.018	12.20	55.32	-48.38	7.55
1424.434	29.63	56.58	1.73	6.53
1425.122	43.63	50.82	59.78	7.87
1425.874	44.92	32.14	88.81	7.76
1426.979	34.45	20.57	-55.92	7.44
1427.459	32.95	18.47	-45.77	7.53
1428.962	37.97	6.27	-66.82	7.54
1429.442	40.37	6.93	24.51	6.33
1430.130	47.30	21.92	69.40	7.85
1430.882	50.69	46.38	-88.95	7.09
1431.298	50.11	54.34	61.39	7.98
1432.049	38.69	55.81	-16.37	7.75
1432.867	22.32	54.65	-10.03	8.61
1433.282	18.16	54.54	-16.50	9.28
1434.035	20.83	48.38	83.29	7.69
1434.450	21.02	49.55	70.54	6.72
1435.202	47.24	36.20	22.41	6.83
1435.890	50.32	33.19	-85.48	7.32
1436.307	45.02	27.54	-37.49	7.44
1437.058	23.89	22.38	-23.36	7.79
1437.810	15.40	30.17	36.78	7.54
1438.291	12.31	40.08	72.44	7.29
1439.041	35.34	56.67	9.46	6.37
1439.810	50.01	44.01	66.41	7.87
1440.211	49.29	35.95	-79.01	7.19
1440.979	42.85	25.01	-53.69	6.84
1441.521	38.55	13.36	-68.88	6.94
1442.210	19.74	8.53	6.79	7.15
1442.898	10.56	15.07	47.59	7.65
1444.066	9.01	41.44	83.79	7.49
1444.819	9.46	55.64	-20.29	8.59
1445.219	11.37	55.81	-1.34	7.54
1445.843	16.88	54.71	37.51	8.11
1446.259	35.84	49.29	27.18	6.89
1447.010	54.49	31.05	86.74	7.76
1447.826	52.75	26.07	-66.43	7.84
1448.242	46.72	21.65	-36.28	7.71
1448.931	35.08	26.64	8.28	7.56
1449.411	24.29	32.98	31.47	7.91
1450.162	4.29	48.58	-54.71	7.77
1450.915	6.27	40.85	46.68	8.04
1451.395	18.15	39.25	15.79	7.38
1452.019	40.78	37.20	5.45	6.40
1452.435	51.88	25.92	85.13	7.35
1453.185	47.48	11.83	-59.55	7.04
1453.939	35.23	7.75	12.04	7.27
1454.355	23.83	10.96	9.81	7.38
1455.107	4.13	29.00	77.57	7.47
1455.859	24.33	54.17	-5.02	6.40
1456.275	47.30	50.63	44.47	6.40
1457.169	47.06	27.45	-50.29	7.77
1457.987	40.32	21.96	-65.67	7.62
1460.593	39.96	13.65	-48.19	7.25
1461.281	13.81	11.20	20.92	7.58
1461.907	3.47	42.15	83.46	7.50
1462.387	10.27	54.84	-22.41	7.33
1463.202	28.81	54.03	12.54	6.45
1464.099	52.06	43.35	71.96	8.23
1464.914	51.28	30.96	-77.30	8.29
1465.394	49.82	29.19	-58.28	7.15
1466.290	43.91	9.85	-55.16	7.06
1467.043	33.20	7.64	6.07	7.31
1467.874	18.12	22.28	72.63	8.01
1468.290	14.40	45.56	81.13	7.23
1469.169	44.38	53.84	25.38	7.02
1470.002	51.14	48.90	60.89	7.62
1470.481	50.68	40.75	-76.13	7.55
1471.379	50.19	39.34	-61.97	7.76
1472.130	42.80	36.43	-26.10	7.86
1472.883	32.36	32.97	-29.96	7.78
1473.362	28.05	31.10	-42.79	6.75
1475.010	34.73	16.73	44.79	6.90
1475.490	48.01	15.48	-36.56	7.34
1476.305	48.19	48.32	64.06	7.42
1477.139	39.63	54.46	-21.33	7.37
1477.891	31.41	51.98	-54.75	7.66
1478.434	28.10	49.45	-43.51	7.90
1479.203	15.96	50.31	7.60	7.60
1480.083	6.07	49.33	43.36	7.49
1480.915	19.20	44.26	37.41	8.32
1482.290	29.82	44.55	16.78	6.39
1483.171	44.39	30.05	-62.83	8.32
1485.650	40.96	21.98	-50.61	7.39
1486.466	27.33	13.88	1.34	7.93
1487.299	23.19	32.82	77.76	7.63
1488.115	48.24	51.73	41.31	7.60
1488.946	49.73	33.47	-77.56	7.91
1489.491	48.84	31.18	-65.70	7.31
1490.386	39.85	7.65	-20.10	7.87
1492.225	37.60	12.84	43.25	7.78
1493.123	44.57	38.98	87.07	6.72
1493.954	32.70	53.13	-51.55	7.79
1496.355	34.13	49.38	-85.96	7.90
1497.314	35.05	49.82	69.51	7.09
1498.274	33.35	25.99	-37.18	7.97
1499.091	16.59	19.13	-13.32	8.52
1499.987	3.91	49.49	-76.14	7.60
1500.466	23.58	56.22	-4.40	6.75
1501.011	46.28	48.55	66.94	7.64
1501.571	46.27	45.28	-76.26	8.13
1502.531	44.74	34.76	-77.45	7.26
1503.491	42.52	12.43	-49.47	7.38
1504.387	30.92	8.91	-9.83	6.80
1505.266	10.08	7.89	55.14	7.05
1506.163	8.34	15.33	61.53	6.68
1508.019	9.63	15.09	-85.98	6.28
1509.042	25.16	22.77	-37.50	6.70
1510.003	45.93	55.06	13.42	7.46
1510.562	41.17	54.96	-23.84	7.77
1512.339	35.27	23.16	-45.19	6.72
1513.171	9.94	16.67	81.78	7.87
1514.130	8.55	47.58	-78.25	7.31
1515.090	49.36	51.81	46.85	7.45
1516.050	48.52	43.40	-71.87	7.52
1516.595	45.29	31.16	-64.32	7.48
1517.554	31.17	25.78	-14.04	8.12
1518.514	17.29	17.40	-51.50	7.86
1519.410	16.34	7.01	34.86	6.79
1520.306	35.20	15.97	-66.05	7.16
1521.186	41.89	53.15	-5.18	8.27
1522.082	30.00	51.04	-19.32	7.67
1523.043	8.51	52.74	-85.25	7.64
1523.603	10.57	50.38	50.57	8.67
1524.483	18.84	31.28	81.09	7.26
1525.378	31.10	6.87	-5.78	6.91
1526.338	51.53	29.26	77.42	7.20
1527.234	49.30	55.48	12.30	7.46
1528.194	44.01	55.95	-33.13	7.42
1529.970	10.93	51.85	-35.24	7.17
1530.530	7.12	47.58	-87.23	7.87
1531.491	4.70	40.05	-60.22	8.69
1532.387	2.49	39.53	-23.85	5.60
1534.513	4.02	39.57	79.26	6.44
1535.475	38.52	27.77	67.95	7.14
1536.433	40.06	19.53	-82.79	7.62
1539.314	31.30	9.88	23.32	7.37
1540.273	27.08	13.92	60.73	6.92
1541.235	8.85	52.16	-18.31	7.16
1542.130	6.14	48.86	64.63	7.10
1543.090	27.33	32.57	84.70	7.56
1544.050	26.39	29.38	-68.19	7.84
1545.074	31.51	17.26	62.85	7.42
1546.099	48.42	17.55	-78.35	7.27
1547.139	38.28	50.61	8.51	7.75
1548.098	22.68	51.51	-43.57	6.96
1549.122	7.43	44.18	36.89	7.65
1551.042	30.49	17.14	-87.62	6.72
1551.667	15.18	5.20	-25.24	7.49
1553.714	39.60	35.84	-53.63	6.47
1554.690	38.78	53.32	-31.97	7.47
1555.714	39.87	52.77	-65.06	6.84
1556.737	47.11	10.98	84.21	7.11
1557.699	35.60	10.86	5.17	7.41
1558.738	29.10	43.16	62.66	7.09
1559.762	14.28	51.32	-65.70	8.20
1560.723	9.31	51.59	-16.30	7.22
1562.914	37.56	25.47	-76.19	7.79
1563.874	28.27	19.18	-10.06	7.38
1564.835	25.13	18.41	-38.52	6.83
1565.939	30.18	39.18	-81.90	6.76
1567.042	53.42	52.58	81.66	7.92
1568.130	46.16	43.52	-31.22	7.70
1569.234	26.06	18.00	-64.53	7.21
1570.258	13.86	10.76	-40.58	7.07
1571.283	14.94	12.04	-9.10	4.65
1572.450	31.42	44.20	-41.36	7.45
1573.411	47.33	34.47	-74.31	7.67
1574.450	37.75	18.19	-27.97	7.51
1575.539	8.11	36.33	75.01	7.09
1576.578	43.25	51.20	51.14	7.19
1577.603	44.10	44.17	-78.53	7.60
1578.705	34.20	9.65	-13.71	7.02
1579.730	14.50	25.47	65.42	7.31
1580.835	10.25	56.91	-15.74	7.85
1581.923	45.33	46.09	83.57	7.49
1582.962	46.20	9.84	-24.09	7.02
1583.987	17.65	7.37	-31.91	7.33
1586.179	28.66	45.88	79.79	7.43
1587.282	9.90	52.64	-15.73	7.75
1588.451	8.23	45.84	23.10	7.10
1589.539	44.79	26.48	-81.10	7.82
1590.643	39.10	21.69	-18.45	7.69
1591.667	27.16	30.51	7.83	7.83
1592.914	11.77	27.20	-54.33	7.02
1594.067	17.32	23.79	-4.14	6.94
1595.235	53.48	51.98	46.35	7.06
1596.482	28.98	51.80	-8.33	7.67
1597.634	15.36	46.80	-59.11	7.26
1598.883	17.12	46.10	53.18	7.50
1600.051	18.67	20.41	-52.94	7.42
1601.282	16.82	18.31	-61.69	7.42
1602.659	31.66	11.72	-4.70	7.21
1603.827	45.78	47.41	39.48	7.66
1605.059	26.33	56.18	11.06	7.66
1606.227	13.05	53.39	-60.57	6.67
1607.395	13.51	52.15	-81.18	8.26
1608.690	15.42	42.42	38.21	8.43
1609.922	19.43	39.14	45.36	8.51
1611.235	15.60	24.69	-78.87	8.27
1612.531	16.10	23.30	49.94	7.84
1613.906	38.44	50.85	3.89	7.54
1615.283	6.17	53.11	-10.59	6.98
1616.515	7.21	52.82	-55.21	6.20
1617.746	8.26	49.81	84.41	7.37
1619.058	9.92	43.89	76.36	8.15
1620.355	26.56	29.55	-88.49	7.35
1621.666	19.15	22.57	-26.97	6.61
1622.961	20.23	23.17	-2.50	4.61
1624.273	21.06	51.14	66.10	7.81
1625.570	12.52	50.25	-42.55	7.50
1626.883	12.66	43.46	72.53	7.57
1628.178	22.56	8.89	-13.02	7.15
1629.411	4.30	45.50	-84.89	7.84
1630.659	29.40	50.17	35.89	6.96
1631.954	37.39	39.65	89.96	7.16
1633.331	25.89	13.19	-11.30	7.27
1634.707	12.87	29.61	15.99	7.29
1636.003	10.50	25.26	-84.62	7.04
1637.506	13.91	5.73	47.92	6.66
1638.883	43.96	43.30	46.12	7.45
1640.195	17.95	52.14	-12.26	7.56
1641.699	11.57	42.05	71.85	8.74
1643.075	40.02	18.41	-62.62	7.55
1644.451	29.52	21.86	13.67	6.96
1645.747	42.82	51.66	-38.46	7.49
1647.122	43.02	20.17	-81.83	7.09
1648.419	25.60	7.51	20.00	7.40
1649.939	12.96	55.03	-25.83	7.28
1651.314	40.85	35.49	87.35	7.07
1652.755	45.15	8.16	-28.96	6.74
1654.194	36.04	12.66	22.60	7.51
1655.555	6.48	55.47	-53.56	7.60
1656.931	33.26	48.35	29.42	6.42
1658.643	39.12	16.51	-75.45	7.77
1660.227	17.18	9.40	31.21	7.47
1661.810	18.44	24.22	-72.19	7.79
1663.458	22.31	52.12	-66.63	7.81
1664.963	12.58	37.64	73.24	8.11
1666.675	12.21	5.71	37.32	7.29
1668.259	51.31	37.44	88.81	6.51
1669.841	29.80	52.57	4.33	7.41
1671.411	10.15	35.30	86.72	7.55
1672.931	10.33	29.65	62.89	7.10
1674.642	36.78	19.96	5.96	6.90
1676.147	45.69	45.61	12.45	7.36
1677.666	7.05	54.33	-7.08	7.26
1679.379	9.60	35.49	66.09	8.05
1681.026	16.80	6.18	-19.26	7.16
1682.675	42.90	49.52	-5.71	7.32
1684.243	24.81	49.53	-19.64	7.56
1685.971	12.09	40.04	70.91	8.80
1687.683	14.89	29.95	57.50	8.40
1689.602	43.75	21.46	-29.89	7.65
1693.026	40.20	18.26	-16.30	7.14
1694.882	12.00	47.37	-45.24	7.52
1696.674	36.16	25.18	83.35	7.45
1698.595	32.26	15.30	-52.02	5.41
1700.242	6.52	45.84	74.44	7.78
1703.731	47.92	30.58	-81.96	7.15
1705.586	6.87	34.19	76.42	7.69
1707.378	43.28	44.29	-63.12	7.99
1709.155	23.15	21.42	-58.51	7.59
1711.011	14.47	9.80	-47.21	6.64
1712.867	34.86	53.46	-14.92	6.88
1714.786	35.22	26.89	-47.34	7.59
1716.771	23.47	9.26	39.34	7.48
1718.626	10.19	49.38	-33.71	7.19
1720.338	10.74	33.69	80.56	7.66
1722.066	11.81	28.23	65.38	7.25
1723.987	15.62	19.03	88.84	7.48
1725.763	49.70	12.16	-38.53	7.32
1727.618	32.06	46.34	-0.54	7.84
1729.409	3.35	50.52	86.33	8.11
1731.187	9.26	42.03	57.02	7.86
1733.042	27.03	11.06	65.70	7.39
1734.963	50.85	53.93	-66.11	7.48
1735.922	35.83	53.82	-17.97	7.45
1738.050	10.93	45.70	82.63	6.97
1740.179	14.01	20.28	67.49	7.51
1742.434	23.63	49.86	-6.16	6.93
1744.563	7.89	24.86	-51.85	6.79
1746.978	45.00	8.76	83.19	6.91
1749.171	7.35	45.65	72.37	7.97
1751.363	35.39	43.39	-85.29	7.81
1753.491	18.35	27.58	-50.93	7.34
1755.682	15.79	5.64	-72.33	7.93
1757.954	16.39	7.29	-81.89	5.77
1760.210	48.22	38.88	88.72	7.08
1762.418	13.64	36.89	29.58	7.91
1764.611	29.75	9.35	-85.02	8.52
1766.867	32.33	55.65	-6.53	7.26
1768.866	21.24	40.94	72.08	7.70
1771.058	30.33	4.95	-71.92	8.06
1773.331	36.84	23.43	74.86	7.97
1775.795	7.92	50.03	63.82	7.45
1778.051	8.89	50.95	24.78	6.80
1780.322	8.48	44.99	-83.17	7.24
1782.594	36.31	11.65	2.31	7.42
1784.643	29.06	18.99	60.45	7.66
1786.914	14.02	50.33	-20.39	6.95
1789.043	31.22	9.82	-15.08	6.43
1791.299	3.99	49.93	-67.60	7.17
1793.634	7.89	45.58	19.01	7.41
1795.907	47.69	21.72	-52.19	7.09
1798.434	3.37	57.59	5.66	6.90
1800.979	37.43	16.49	64.79	7.52
1803.731	25.50	53.52	-8.51	6.92
1806.738	29.64	25.55	-60.50	7.75
1809.763	22.35	9.00	-39.91	8.64
1812.850	41.01	21.26	-73.09	7.16
1815.666	45.52	41.80	64.81	6.89
1818.482	7.13	6.25	-16.81	8.37
1821.571	9.64	5.48	-54.20	5.85
1824.515	48.83	40.35	-82.00	7.68
1827.475	17.71	17.45	-70.47	7.97
1830.626	47.96	34.74	73.86	7.02
1833.715	7.83	34.29	61.24	7.98
1836.737	11.45	20.77	24.05	6.73
1839.826	49.81	34.69	-69.41	8.40
1842.915	37.26	43.34	-89.29	7.31
1845.922	47.22	33.96	74.44	7.49
1849.154	13.44	33.31	59.06	7.03
1852.386	43.43	10.80	-47.93	7.55
1856.019	33.77	45.83	30.86	7.03
1859.443	14.50	22.73	-85.13	7.34
1862.739	25.85	11.70	-28.67	7.53
1866.386	12.06	24.76	6.84	5.07
1869.747	21.07	9.67	-19.63	6.93
1872.963	17.81	41.52	66.84	7.56
1876.674	27.13	6.02	-17.41	6.29
1880.179	29.49	12.74	-34.29	7.23
1883.475	46.79	51.31	65.24	8.09
1887.106	11.95	6.20	-40.43	7.48
1890.675	10.45	41.50	-79.00	7.15
1894.307	36.30	5.47	-24.46	7.00
1897.747	29.35	36.19	-79.93	7.76
1901.379	20.38	4.03	-83.89	7.23
1904.675	50.89	38.00	-64.58	7.75
1907.971	15.91	39.94	58.05	6.90
1911.187	25.82	28.29	3.19	7.42
1914.755	50.29	27.02	-74.73	6.95
1918.195	7.79	34.79	37.35	7.25
1921.619	43.33	44.50	34.68	7.17
1925.265	17.21	11.38	16.38	7.56
1928.898	26.73	45.90	17.44	7.29
1932.675	20.66	28.61	56.29	6.62
1936.451	29.76	50.29	30.94	7.20
1940.226	8.48	13.79	-31.56	8.02
1944.194	27.85	43.60	-19.47	6.72
1948.115	14.58	55.45	0.28	6.64
1952.370	26.10	8.41	-27.85	6.70
1956.626	32.50	17.24	-38.88	7.52
1961.011	35.92	55.64	-28.83	7.40
1965.266	41.45	8.95	-1.81	6.47
1969.586	13.31	33.68	55.21	8.18
1973.843	33.74	14.41	16.74	7.45
1978.722	51.50	21.11	-71.21	7.45
1983.186	21.80	9.59	-4.73	7.22
1987.779	17.14	23.83	-85.57	7.68
1991.763	52.83	45.25	82.88	8.30
1996.563	9.34	14.02	-39.26	5.69
2001.155	37.60	15.15	-53.37	7.42
2005.827	23.24	14.62	83.23	7.37
2010.147	17.27	33.34	0.05	7.46
2014.611	21.69	56.86	1.44	6.73
2018.931	18.84	55.63	-40.71	7.13
2023.810	15.13	5.45	-72.83	7.35
2028.546	2.98	47.42	-73.81	7.42
2032.995	49.19	34.22	-85.69	7.09
2038.082	18.31	5.97	10.35	6.89
2042.755	24.77	46.07	28.22	7.18
2047.955	45.96	41.21	-83.95	7.05
2052.835	9.12	51.21	-85.76	6.73
2058.115	20.90	12.49	29.49	6.42
2063.602	16.77	14.90	36.73	7.92
2069.235	31.27	4.22	14.85	7.28
2074.803	7.39	40.25	79.53	7.92
2080.003	2.87	50.96	60.49	7.95
2085.507	9.20	21.27	89.26	7.29
2091.395	10.28	26.82	78.52	7.25
2097.026	39.38	50.70	22.27	6.82
2102.307	7.15	48.85	21.52	8.20
2108.003	49.55	23.43	48.71	7.18
2113.699	14.61	45.63	-67.43	5.92
2119.746	39.74	17.60	-11.59	7.76
2125.650	14.56	11.59	48.35	7.36
2131.555	31.59	56.07	1.22	6.83
2138.211	39.22	52.91	-32.76	7.52
2144.722	27.58	51.96	-75.14	8.47
2151.314	52.21	46.45	58.91	7.08
2157.619	37.77	10.66	41.57	7.46
2164.355	19.04	8.74	-43.83	7.34
2171.283	10.67	15.60	57.82	7.71
2177.667	22.45	5.62	66.13	6.33
2183.571	4.16	38.76	-85.40	8.28
2189.667	6.82	50.97	-54.49	6.88
2196.530	9.01	52.84	-3.09	7.16
2203.266	2.77	43.79	35.68	5.25
2209.715	30.71	37.47	82.63	7.66
2215.474	11.58	54.12	54.50	7.67
2222.130	49.53	30.30	60.36	7.60
2228.994	27.63	53.50	61.48	7.81
2235.859	35.86	49.83	61.44	7.83
2243.139	4.42	31.00	-87.19	7.97
2250.754	15.32	53.77	47.12	7.64
2258.163	43.94	19.05	-80.59	7.91
2265.363	14.15	4.50	8.39	6.98
2272.851	4.62	14.76	64.41	7.60
2280.403	10.20	46.52	63.25	5.87
2287.603	15.64	4.61	73.32	7.49
2293.923	14.41	20.24	57.77	7.44
2300.371	37.64	39.80	54.63	6.33
2306.755	37.20	23.66	-48.41	7.54
2313.331	3.05	53.52	43.53	7.42
2320.611	21.40	29.46	-89.91	6.61
2327.891	13.45	46.17	27.28	7.61
2334.611	8.17	46.26	27.44	8.02
2341.603	17.04	15.51	78.08	7.85
2348.466	10.67	51.91	21.91	7.62
2355.411	11.47	34.75	-71.85	7.76
2362.610	27.73	18.64	39.70	7.63
2369.683	15.13	29.39	74.74	8.07
2376.338	4.30	41.86	53.36	7.64
2383.603	48.42	28.18	-27.15	7.04
2390.819	39.19	15.03	14.69	7.57
2398.290	34.46	53.29	-20.46	9.24
2406.050	37.03	56.16	3.73	6.31
2413.395	29.98	41.23	85.81	8.29
2420.739	6.11	43.77	18.85	8.31
2428.083	17.92	50.08	59.02	8.18
2434.803	21.74	38.69	-41.14	6.73
2441.250	48.97	49.96	57.10	7.95
2448.260	42.22	14.94	-74.88	6.80
2455.187	10.63	27.28	-26.06	7.19
2461.843	51.29	13.02	-34.66	7.55
2468.162	6.63	46.32	64.43	8.11
2474.610	16.46	41.39	8.79	7.38
2480.915	29.38	22.51	-47.08	7.74
2487.170	22.27	11.90	-26.01	7.49
2493.746	6.44	43.73	84.28	7.93
2500.547	8.78	55.10	-8.55	7.16
2507.538	28.51	52.94	65.34	7.69
2514.067	12.06	54.41	-2.29	7.45
2520.579	36.87	40.60	-18.40	7.01
2527.171	8.55	49.09	84.82	7.78
2534.098	6.72	44.58	82.55	7.49
2540.899	5.74	50.90	-57.38	6.86
2547.491	4.66	51.23	-69.92	7.57
2554.147	22.30	48.47	83.95	7.53
2561.138	50.14	9.16	6.26	6.92
2567.796	3.17	30.72	-26.22	5.08
2574.387	13.67	5.24	87.30	7.22
2580.915	7.09	29.46	55.11	7.56
2587.491	23.24	12.46	-31.11	6.96
2594.083	17.93	4.46	-40.10	7.34
2600.466	34.86	5.21	83.81	7.07
2606.579	48.34	45.01	-56.47	8.15
2612.403	11.80	50.93	-58.67	7.60
2618.930	19.59	7.21	18.86	6.51
2625.314	16.69	52.11	43.56	7.54
2631.410	21.20	51.14	3.11	6.77
2637.859	24.40	8.69	-73.80	7.47
2643.906	13.20	19.15	-50.09	6.60
2650.211	8.42	43.47	32.69	5.01
2656.946	10.17	54.04	56.13	7.74
2663.059	11.71	27.18	48.94	7.48
2669.570	3.07	22.40	-83.59	7.60
2675.682	10.37	27.89	81.60	7.23
2681.986	9.52	25.33	62.12	7.18
2688.307	5.44	44.42	65.81	6.71
2694.339	5.51	45.54	83.41	5.09
2707.522	22.30	48.79	15.41	7.92
2713.827	40.40	41.99	52.89	6.89
2720.499	52.43	34.38	80.50	6.86
2726.386	3.92	44.26	63.76	5.07
2739.219	20.46	13.93	-15.32	7.50
2745.122	7.23	41.30	46.63	5.60
2751.171	17.37	7.73	31.18	7.40
2757.267	22.91	55.20	3.32	6.31
2763.106	8.81	47.95	-10.93	7.75
2769.138	23.47	52.70	-36.31	7.20
2775.123	47.63	9.10	-84.30	6.96
2781.363	8.65	50.96	80.99	6.31
2793.506	9.71	51.24	34.25	7.11
2800.162	44.01	48.23	-62.37	7.51
2806.403	34.94	11.64	-15.72	6.79
2812.994	40.19	10.47	-32.08	7.06
2819.315	7.37	54.21	32.35	5.89
2826.035	13.96	47.28	-63.01	8.15
2832.899	5.78	44.24	42.70	6.51
2838.867	5.31	30.93	68.74	7.79
2845.394	10.85	55.70	52.14	6.08
2860.963	8.41	45.38	-74.27	7.21
2868.370	37.64	16.17	75.35	7.29
2875.795	14.47	12.78	66.69	6.95
2883.059	13.89	46.68	65.47	7.14
2890.675	22.31	56.54	-1.65	6.73
2898.499	43.88	39.22	-57.66	6.95
2906.195	4.07	45.53	24.39	5.32
2914.419	14.83	54.81	-74.26	5.96
2922.451	20.26	36.86	85.10	6.84
2930.627	5.06	42.89	71.20	5.38
2955.187	4.28	52.88	63.14	7.46
2963.283	5.24	54.21	-30.23	7.55
2971.315	7.54	55.39	80.06	6.06
2979.970	10.91	51.66	48.10	7.41
2988.819	36.14	40.65	66.80	7.00
2997.331	11.25	49.44	-67.03	6.29
3005.554	18.83	52.10	79.25	7.54
3014.418	41.70	48.98	-78.86	7.24
3022.723	11.08	55.29	68.01	5.85
3031.571	5.57	49.37	57.95	6.33
3040.082	42.90	29.26	-68.74	6.40
3048.242	34.25	5.47	84.95	7.13
3056.819	6.21	44.81	38.32	5.53
3065.474	16.78	55.44	6.97	7.16
3073.779	5.66	40.92	28.71	6.27
3082.147	26.79	45.84	80.20	7.31
3090.179	6.05	46.50	54.59	7.62
3099.378	28.90	38.97	-55.84	7.35
3107.603	5.23	46.18	58.84	5.78
3124.355	15.83	13.34	5.73	6.81
3133.890	5.42	53.22	53.05	5.39
3142.739	7.83	32.43	-70.97	7.70
3152.482	39.44	11.26	-48.78	7.31
3162.019	18.80	55.86	-72.19	5.65
3172.051	12.73	19.91	54.46	7.21
3181.315	9.91	39.89	83.26	7.54
3190.786	48.21	30.67	-38.46	7.24
3200.114	37.38	12.84	41.13	7.13
3209.523	10.87	56.52	71.95	6.27
3218.707	4.83	53.21	-2.80	7.50
3227.635	4.79	41.67	76.02	6.55
3236.963	9.39	55.97	81.00	5.32
3251.315	4.02	13.65	-50.92	7.49
3261.059	24.94	52.32	-60.83	5.88
3269.843	4.19	45.38	48.06	7.38
3279.380	15.51	14.39	-75.64	6.50
3288.290	7.20	38.80	74.25	6.89
3297.075	19.79	9.78	23.23	7.45
3305.794	13.74	54.80	28.11	7.38
3314.995	2.44	48.29	31.79	5.89
3323.571	48.40	51.57	16.82	7.21
3332.419	3.63	38.47	63.04	5.73
3341.763	16.41	42.72	4.68	6.78
3351.026	4.79	37.90	63.66	6.71
3359.810	4.06	39.34	30.91	4.87
3377.987	8.01	55.91	-72.61	6.23
3387.043	40.84	4.76	-44.37	6.50
3396.866	2.75	47.06	84.34	5.59
3406.531	10.66	31.34	-40.40	6.73
3416.083	9.02	18.14	-66.73	6.94
3425.410	2.72	49.85	54.87	6.14
3435.491	7.49	14.33	-55.49	7.29
3445.171	27.15	45.13	9.83	6.38
3454.706	5.87	47.49	65.05	6.35
3463.636	14.32	49.37	-4.09	6.62
3468.035	17.51	52.48	61.28	7.54
3476.611	49.58	36.46	67.82	6.90
3485.732	29.22	17.99	-69.74	6.85
3494.658	46.66	12.45	-26.06	7.19
3502.962	9.07	53.22	23.81	6.67
3511.267	18.60	58.32	46.62	7.65
3528.211	2.03	55.83	22.96	8.95
3537.138	5.14	51.33	48.75	7.55
3545.443	6.35	53.41	38.43	6.81
3554.147	41.23	49.31	-66.17	8.10
3563.411	13.73	57.15	58.25	7.63
3572.675	36.19	52.70	46.24	5.49
3582.771	40.91	53.80	-71.81	7.32
3591.683	46.78	21.13	-62.65	7.36
